#K-Path(1/A) Energy-Level(eV)
# NKPTS & NBANDS:  84  76
# Band-Index:    1
   0.00000    -16.573469
   0.03287    -16.572857
   0.06574    -16.571059
   0.09861    -16.568080
   0.13148    -16.563845
   0.16435    -16.558394
   0.19722    -16.551710
   0.23009    -16.543785
   0.26297    -16.534589
   0.29584    -16.524126
   0.32871    -16.513304
   0.36158    -16.502483
   0.39445    -16.491542
   0.42732    -16.480797
   0.46019    -16.470737
   0.49306    -16.461896
   0.52593    -16.454921
   0.55880    -16.450404
   0.59167    -16.448836
   0.59167    -16.448836
   0.63351    -16.452417
   0.67535    -16.461187
   0.71719    -16.472247
   0.75902    -16.483944
   0.80086    -16.495480
   0.80086    -16.495483
   0.83389    -16.504256
   0.86692    -16.512602
   0.89995    -16.520442
   0.93298    -16.527777
   0.96601    -16.534498
   0.99904    -16.540650
   1.03207    -16.546198
   1.06510    -16.551155
   1.09813    -16.555530
   1.13116    -16.559342
   1.16419    -16.562617
   1.19722    -16.565380
   1.23025    -16.567686
   1.26328    -16.569539
   1.29631    -16.570995
   1.32934    -16.572095
   1.36237    -16.572859
   1.39539    -16.573309
   1.42842    -16.573469
   1.42842    -16.573469
   1.46045    -16.573460
   1.49247    -16.573471
   1.52450    -16.573497
   1.55653    -16.573520
   1.58855    -16.573575
   1.62058    -16.573625
   1.65260    -16.573676
   1.68463    -16.573756
   1.71665    -16.573839
   1.74868    -16.573934
   1.78070    -16.574017
   1.81273    -16.574096
   1.84475    -16.574159
   1.87678    -16.574226
   1.90880    -16.574255
   1.94083    -16.574274
   1.94083    -16.574274
   1.97569    -16.573207
   2.01056    -16.570066
   2.04542    -16.564908
   2.08029    -16.557820
   2.11515    -16.548994
   2.15002    -16.538604
   2.18488    -16.526958
   2.21975    -16.514359
   2.25461    -16.501231
   2.28947    -16.488010
   2.32434    -16.475200
   2.35920    -16.463307
   2.35920    -16.463307
   2.39618    -16.462851
   2.43316    -16.461564
   2.47014    -16.459539
   2.50712    -16.456949
   2.54410    -16.454115
   2.58108    -16.451466
   2.61806    -16.449544
   2.65504    -16.448836
 
# Band-Index:    2
   2.65504    -16.448834
   2.61806    -16.449542
   2.58108    -16.451463
   2.54410    -16.454111
   2.50712    -16.456945
   2.47014    -16.459534
   2.43316    -16.461559
   2.39618    -16.462845
   2.35920    -16.463300
   2.35920    -16.463300
   2.32434    -16.452666
   2.28947    -16.443587
   2.25461    -16.436117
   2.21975    -16.430164
   2.18488    -16.425539
   2.15002    -16.422007
   2.11515    -16.419356
   2.08029    -16.417391
   2.04542    -16.416003
   2.01056    -16.415059
   1.97569    -16.414523
   1.94083    -16.414358
   1.94083    -16.414358
   1.90880    -16.418022
   1.87678    -16.427838
   1.84475    -16.441430
   1.81273    -16.456848
   1.78070    -16.472794
   1.74868    -16.488511
   1.71665    -16.503494
   1.68463    -16.517421
   1.65260    -16.530072
   1.62058    -16.541298
   1.58855    -16.550965
   1.55653    -16.558980
   1.52450    -16.565281
   1.49247    -16.569810
   1.46045    -16.572543
   1.42842    -16.573469
   1.42842    -16.573469
   1.39539    -16.572788
   1.36237    -16.570798
   1.32934    -16.567520
   1.29631    -16.562977
   1.26328    -16.557248
   1.23025    -16.550413
   1.19722    -16.542555
   1.16419    -16.533791
   1.13116    -16.524220
   1.09813    -16.513979
   1.06510    -16.503180
   1.03207    -16.491952
   0.99904    -16.480431
   0.96601    -16.468746
   0.93298    -16.457036
   0.89995    -16.445440
   0.86692    -16.434115
   0.83389    -16.423262
   0.80086    -16.412954
   0.80086    -16.412960
   0.75902    -16.418397
   0.71719    -16.431545
   0.67535    -16.441091
   0.63351    -16.446897
   0.59167    -16.448834
   0.59167    -16.448834
   0.55880    -16.450402
   0.52593    -16.454919
   0.49306    -16.461894
   0.46019    -16.470735
   0.42732    -16.480795
   0.39445    -16.491540
   0.36158    -16.502482
   0.32871    -16.513302
   0.29584    -16.523703
   0.26297    -16.533458
   0.23009    -16.542396
   0.19722    -16.550370
   0.16435    -16.557265
   0.13148    -16.563022
   0.09861    -16.567554
   0.06574    -16.570820
   0.03287    -16.572796
   0.00000    -16.573469
 
# Band-Index:    3
   0.00000    -16.573468
   0.03287    -16.572795
   0.06574    -16.570819
   0.09861    -16.567552
   0.13148    -16.563021
   0.16435    -16.557264
   0.19722    -16.550368
   0.23009    -16.542394
   0.26297    -16.533457
   0.29584    -16.523702
   0.32871    -16.512402
   0.36158    -16.499417
   0.39445    -16.485209
   0.42732    -16.469762
   0.46019    -16.453148
   0.49306    -16.435405
   0.52593    -16.416628
   0.55880    -16.396840
   0.59167    -16.376327
   0.59167    -16.376327
   0.63351    -16.378063
   0.67535    -16.383090
   0.71719    -16.390932
   0.75902    -16.401078
   0.80086    -16.401762
   0.80086    -16.401769
   0.83389    -16.386389
   0.86692    -16.369174
   0.89995    -16.350286
   0.93298    -16.360973
   0.96601    -16.383571
   0.99904    -16.405943
   1.03207    -16.427770
   1.06510    -16.448786
   1.09813    -16.468750
   1.13116    -16.487432
   1.16419    -16.504642
   1.19722    -16.520201
   1.23025    -16.533980
   1.26328    -16.545841
   1.29631    -16.555668
   1.32934    -16.563403
   1.36237    -16.568973
   1.39539    -16.572334
   1.42842    -16.573468
   1.42842    -16.573468
   1.46045    -16.572542
   1.49247    -16.569809
   1.52450    -16.565280
   1.55653    -16.558979
   1.58855    -16.550964
   1.62058    -16.541297
   1.65260    -16.530071
   1.68463    -16.517420
   1.71665    -16.503493
   1.74868    -16.488510
   1.78070    -16.472793
   1.81273    -16.456846
   1.84475    -16.441429
   1.87678    -16.427837
   1.90880    -16.418021
   1.94083    -16.414357
   1.94083    -16.414357
   1.97569    -16.413621
   2.01056    -16.411454
   2.04542    -16.407938
   2.08029    -16.403195
   2.11515    -16.397425
   2.15002    -16.390829
   2.18488    -16.383682
   2.21975    -16.376212
   2.25461    -16.368641
   2.28947    -16.361056
   2.32434    -16.353450
   2.35920    -16.345728
   2.35920    -16.345728
   2.39618    -16.346904
   2.43316    -16.350209
   2.47014    -16.355104
   2.50712    -16.360839
   2.54410    -16.366642
   2.58108    -16.371646
   2.61806    -16.375094
   2.65504    -16.376327
 
# Band-Index:    4
   2.65504    -16.376305
   2.61806    -16.375073
   2.58108    -16.371626
   2.54410    -16.366624
   2.50712    -16.360823
   2.47014    -16.355090
   2.43316    -16.350198
   2.39618    -16.346896
   2.35920    -16.345719
   2.35920    -16.345719
   2.32434    -16.337751
   2.28947    -16.329529
   2.25461    -16.321129
   2.21975    -16.312793
   2.18488    -16.304801
   2.15002    -16.297407
   2.11515    -16.290862
   2.08029    -16.285308
   2.04542    -16.280897
   2.01056    -16.277700
   1.97569    -16.275765
   1.94083    -16.275121
   1.94083    -16.275121
   1.90880    -16.270994
   1.87678    -16.259836
   1.84475    -16.244071
   1.81273    -16.225845
   1.78070    -16.206606
   1.74868    -16.187439
   1.71665    -16.169179
   1.68463    -16.152580
   1.65260    -16.138393
   1.62058    -16.127112
   1.58855    -16.118908
   1.55653    -16.113355
   1.52450    -16.109964
   1.49247    -16.107873
   1.46045    -16.106778
   1.42842    -16.106451
   1.42842    -16.106451
   1.39539    -16.107099
   1.36237    -16.109194
   1.32934    -16.113004
   1.29631    -16.119147
   1.26328    -16.128313
   1.23025    -16.140775
   1.19722    -16.156458
   1.16419    -16.174884
   1.13116    -16.195388
   1.09813    -16.217345
   1.06510    -16.240119
   1.03207    -16.263194
   0.99904    -16.286127
   0.96601    -16.308504
   0.93298    -16.329994
   0.89995    -16.338415
   0.86692    -16.316306
   0.83389    -16.294998
   0.80086    -16.301335
   0.80086    -16.301343
   0.75902    -16.322930
   0.71719    -16.342553
   0.67535    -16.359343
   0.63351    -16.371577
   0.59167    -16.376305
   0.59167    -16.376305
   0.55880    -16.355072
   0.52593    -16.333364
   0.49306    -16.311359
   0.46019    -16.289290
   0.42732    -16.267471
   0.39445    -16.246032
   0.36158    -16.225296
   0.32871    -16.205615
   0.29584    -16.187228
   0.26297    -16.170397
   0.23009    -16.155330
   0.19722    -16.142191
   0.16435    -16.131082
   0.13148    -16.122058
   0.09861    -16.115118
   0.06574    -16.110299
   0.03287    -16.107387
   0.00000    -16.106451
 
# Band-Index:    5
   0.00000    -16.106449
   0.03287    -16.106207
   0.06574    -16.105516
   0.09861    -16.104399
   0.13148    -16.102785
   0.16435    -16.100780
   0.19722    -16.098414
   0.23009    -16.095687
   0.26297    -16.093365
   0.29584    -16.107002
   0.32871    -16.121313
   0.36158    -16.135926
   0.39445    -16.150494
   0.42732    -16.164464
   0.46019    -16.177313
   0.49306    -16.188417
   0.52593    -16.197077
   0.55880    -16.202627
   0.59167    -16.204567
   0.59167    -16.204567
   0.63351    -16.207825
   0.67535    -16.217337
   0.71719    -16.232343
   0.75902    -16.251847
   0.80086    -16.274898
   0.80086    -16.274896
   0.83389    -16.283253
   0.86692    -16.264462
   0.89995    -16.245154
   0.93298    -16.225546
   0.96601    -16.205831
   0.99904    -16.186238
   1.03207    -16.166986
   1.06510    -16.148284
   1.09813    -16.130407
   1.13116    -16.117577
   1.16419    -16.114612
   1.19722    -16.112214
   1.23025    -16.110344
   1.26328    -16.108912
   1.29631    -16.107868
   1.32934    -16.107170
   1.36237    -16.106741
   1.39539    -16.106504
   1.42842    -16.106449
   1.42842    -16.106449
   1.46045    -16.106777
   1.49247    -16.107872
   1.52450    -16.109962
   1.55653    -16.113354
   1.58855    -16.118907
   1.62058    -16.127111
   1.65260    -16.138392
   1.68463    -16.152579
   1.71665    -16.169177
   1.74868    -16.187437
   1.78070    -16.206605
   1.81273    -16.225844
   1.84475    -16.244069
   1.87678    -16.259834
   1.90880    -16.270993
   1.94083    -16.275120
   1.94083    -16.275120
   1.97569    -16.275112
   2.01056    -16.275043
   2.04542    -16.274826
   2.08029    -16.274275
   2.11515    -16.273188
   2.15002    -16.271244
   2.18488    -16.268144
   2.21975    -16.263535
   2.25461    -16.257163
   2.28947    -16.248757
   2.32434    -16.238275
   2.35920    -16.225824
   2.35920    -16.225824
   2.39618    -16.224897
   2.43316    -16.222339
   2.47014    -16.218693
   2.50712    -16.214567
   2.54410    -16.210628
   2.58108    -16.207393
   2.61806    -16.205300
   2.65504    -16.204567
 
# Band-Index:    6
   2.65504    -16.204566
   2.61806    -16.205297
   2.58108    -16.207388
   2.54410    -16.210620
   2.50712    -16.214557
   2.47014    -16.218681
   2.43316    -16.222327
   2.39618    -16.224884
   2.35920    -16.225811
   2.35920    -16.225811
   2.32434    -16.211484
   2.28947    -16.195689
   2.25461    -16.178835
   2.21975    -16.161342
   2.18488    -16.143848
   2.15002    -16.126955
   2.11515    -16.111283
   2.08029    -16.097498
   2.04542    -16.086149
   2.01056    -16.077710
   1.97569    -16.072519
   1.94083    -16.070768
   1.94083    -16.070768
   1.90880    -16.070776
   1.87678    -16.070790
   1.84475    -16.070766
   1.81273    -16.070643
   1.78070    -16.070329
   1.74868    -16.069722
   1.71665    -16.074421
   1.68463    -16.079668
   1.65260    -16.084675
   1.62058    -16.089310
   1.58855    -16.093440
   1.55653    -16.096927
   1.52450    -16.099718
   1.49247    -16.101777
   1.46045    -16.103034
   1.42842    -16.103470
   1.42842    -16.103470
   1.39539    -16.103003
   1.36237    -16.101626
   1.32934    -16.099366
   1.29631    -16.096222
   1.26328    -16.092323
   1.23025    -16.087774
   1.19722    -16.083790
   1.16419    -16.097967
   1.13116    -16.113566
   1.09813    -16.121158
   1.06510    -16.125332
   1.03207    -16.130192
   0.99904    -16.135668
   0.96601    -16.141701
   0.93298    -16.148220
   0.89995    -16.155112
   0.86692    -16.162272
   0.83389    -16.169531
   0.80086    -16.176738
   0.80086    -16.176745
   0.75902    -16.185403
   0.71719    -16.193060
   0.67535    -16.199180
   0.63351    -16.203178
   0.59167    -16.204566
   0.59167    -16.204566
   0.55880    -16.202626
   0.52593    -16.197076
   0.49306    -16.188416
   0.46019    -16.177312
   0.42732    -16.164463
   0.39445    -16.150492
   0.36158    -16.135924
   0.32871    -16.121310
   0.29584    -16.106999
   0.26297    -16.093361
   0.23009    -16.081648
   0.19722    -16.087163
   0.16435    -16.091940
   0.13148    -16.096028
   0.09861    -16.099226
   0.06574    -16.101582
   0.03287    -16.102999
   0.00000    -16.103470
 
# Band-Index:    7
   0.00000    -16.035066
   0.03287    -16.036042
   0.06574    -16.039000
   0.09861    -16.043888
   0.13148    -16.050606
   0.16435    -16.059037
   0.19722    -16.069184
   0.23009    -16.080666
   0.26297    -16.092654
   0.29584    -16.089362
   0.32871    -16.085857
   0.36158    -16.082204
   0.39445    -16.078457
   0.42732    -16.074661
   0.46019    -16.070724
   0.49306    -16.067021
   0.52593    -16.063467
   0.55880    -16.060055
   0.59167    -16.056842
   0.59167    -16.056842
   0.63351    -16.056992
   0.67535    -16.057338
   0.71719    -16.057849
   0.75902    -16.058516
   0.80086    -16.059331
   0.80086    -16.059338
   0.83389    -16.060022
   0.86692    -16.060795
   0.89995    -16.061578
   0.93298    -16.062333
   0.96601    -16.063026
   0.99904    -16.063611
   1.03207    -16.064039
   1.06510    -16.064233
   1.09813    -16.064868
   1.13116    -16.071069
   1.16419    -16.077013
   1.19722    -16.082616
   1.23025    -16.071213
   1.26328    -16.060358
   1.29631    -16.051342
   1.32934    -16.044258
   1.36237    -16.039153
   1.39539    -16.036078
   1.42842    -16.035066
   1.42842    -16.035066
   1.46045    -16.036003
   1.49247    -16.038776
   1.52450    -16.043112
   1.55653    -16.048500
   1.58855    -16.054223
   1.62058    -16.059490
   1.65260    -16.063719
   1.68463    -16.066661
   1.71665    -16.068606
   1.74868    -16.069720
   1.78070    -16.070328
   1.81273    -16.070641
   1.84475    -16.070765
   1.87678    -16.070788
   1.90880    -16.070775
   1.94083    -16.070766
   1.94083    -16.070766
   1.97569    -16.070584
   2.01056    -16.070055
   2.04542    -16.069197
   2.08029    -16.068040
   2.11515    -16.066610
   2.15002    -16.064924
   2.18488    -16.063017
   2.21975    -16.060935
   2.25461    -16.058756
   2.28947    -16.056459
   2.32434    -16.054135
   2.35920    -16.051837
   2.35920    -16.051837
   2.39618    -16.052009
   2.43316    -16.052493
   2.47014    -16.053283
   2.50712    -16.054219
   2.54410    -16.055230
   2.58108    -16.056083
   2.61806    -16.056670
   2.65504    -16.056842
 
# Band-Index:    8
   2.65504    -16.056840
   2.61806    -16.056667
   2.58108    -16.056080
   2.54410    -16.055226
   2.50712    -16.054214
   2.47014    -16.053278
   2.43316    -16.052486
   2.39618    -16.052002
   2.35920    -16.051831
   2.35920    -16.051831
   2.32434    -16.049527
   2.28947    -16.047330
   2.25461    -16.045246
   2.21975    -16.043283
   2.18488    -16.041531
   2.15002    -16.039947
   2.11515    -16.038597
   2.08029    -16.041591
   2.04542    -16.044657
   2.01056    -16.046902
   1.97569    -16.048277
   1.94083    -16.048768
   1.94083    -16.048768
   1.90880    -16.049486
   1.87678    -16.051603
   1.84475    -16.054883
   1.81273    -16.059086
   1.78070    -16.063908
   1.74868    -16.069101
   1.71665    -16.068604
   1.68463    -16.066660
   1.65260    -16.063717
   1.62058    -16.059489
   1.58855    -16.054222
   1.55653    -16.048499
   1.52450    -16.043111
   1.49247    -16.038775
   1.46045    -16.036002
   1.42842    -16.035065
   1.42842    -16.035065
   1.39539    -16.036039
   1.36237    -16.038874
   1.32934    -16.043139
   1.29631    -16.048125
   1.26328    -16.053025
   1.23025    -16.057090
   1.19722    -16.060216
   1.16419    -16.062248
   1.13116    -16.063459
   1.09813    -16.064099
   1.06510    -16.058566
   1.03207    -16.052188
   0.99904    -16.045868
   0.96601    -16.039736
   0.93298    -16.040810
   0.89995    -16.042053
   0.86692    -16.043505
   0.83389    -16.045147
   0.80086    -16.046992
   0.80086    -16.046991
   0.75902    -16.049539
   0.71719    -16.052172
   0.67535    -16.054556
   0.63351    -16.056252
   0.59167    -16.056840
   0.59167    -16.056840
   0.55880    -16.053864
   0.52593    -16.051154
   0.49306    -16.048667
   0.46019    -16.046450
   0.42732    -16.044484
   0.39445    -16.046930
   0.36158    -16.054570
   0.32871    -16.061952
   0.29584    -16.068966
   0.26297    -16.075570
   0.23009    -16.080662
   0.19722    -16.069180
   0.16435    -16.059033
   0.13148    -16.050602
   0.09861    -16.043883
   0.06574    -16.038995
   0.03287    -16.036037
   0.00000    -16.035065
 
# Band-Index:    9
   0.00000    -16.035056
   0.03287    -16.035088
   0.06574    -16.035210
   0.09861    -16.035427
   0.13148    -16.035731
   0.16435    -16.036119
   0.19722    -16.036624
   0.23009    -16.037253
   0.26297    -16.037999
   0.29584    -16.038897
   0.32871    -16.039989
   0.36158    -16.041273
   0.39445    -16.042768
   0.42732    -16.039087
   0.46019    -16.031129
   0.49306    -16.023100
   0.52593    -16.015121
   0.55880    -16.007181
   0.59167    -15.999429
   0.59167    -15.999429
   0.63351    -16.000020
   0.67535    -16.001722
   0.71719    -16.004531
   0.75902    -16.008391
   0.80086    -16.013246
   0.80086    -16.013242
   0.83389    -16.017686
   0.86692    -16.022611
   0.89995    -16.027959
   0.93298    -16.033669
   0.96601    -16.039657
   0.99904    -16.038829
   1.03207    -16.038062
   1.06510    -16.037390
   1.09813    -16.036863
   1.13116    -16.036431
   1.16419    -16.036081
   1.19722    -16.035795
   1.23025    -16.035595
   1.26328    -16.035420
   1.29631    -16.035280
   1.32934    -16.035178
   1.36237    -16.035102
   1.39539    -16.035059
   1.42842    -16.035056
   1.42842    -16.035056
   1.46045    -16.035047
   1.49247    -16.035061
   1.52450    -16.035091
   1.55653    -16.035106
   1.58855    -16.035132
   1.62058    -16.035167
   1.65260    -16.035243
   1.68463    -16.035236
   1.71665    -16.035322
   1.74868    -16.035306
   1.78070    -16.035331
   1.81273    -16.035372
   1.84475    -16.035348
   1.87678    -16.035352
   1.90880    -16.035354
   1.94083    -16.035354
   1.94083    -16.035354
   1.97569    -16.035506
   2.01056    -16.035887
   2.04542    -16.036530
   2.08029    -16.037432
   2.11515    -16.037810
   2.15002    -16.033355
   2.18488    -16.028396
   2.21975    -16.022955
   2.25461    -16.017196
   2.28947    -16.011200
   2.32434    -16.005092
   2.35920    -15.999005
   2.35920    -15.999005
   2.39618    -15.999016
   2.43316    -15.999076
   2.47014    -15.999154
   2.50712    -15.999231
   2.54410    -15.999315
   2.58108    -15.999392
   2.61806    -15.999414
   2.65504    -15.999429
 
# Band-Index:   10
   2.65504    -15.999420
   2.61806    -15.999406
   2.58108    -15.999384
   2.54410    -15.999307
   2.50712    -15.999223
   2.47014    -15.999146
   2.43316    -15.999068
   2.39618    -15.999007
   2.35920    -15.998996
   2.35920    -15.998996
   2.32434    -15.992989
   2.28947    -15.987176
   2.25461    -15.981674
   2.21975    -15.976549
   2.18488    -15.971890
   2.15002    -15.967711
   2.11515    -15.964058
   2.08029    -15.960960
   2.04542    -15.958435
   2.01056    -15.956529
   1.97569    -15.955322
   1.94083    -15.954919
   1.94083    -15.954919
   1.90880    -15.954556
   1.87678    -15.953560
   1.84475    -15.952119
   1.81273    -15.950511
   1.78070    -15.948901
   1.74868    -15.947582
   1.71665    -15.946470
   1.68463    -15.945589
   1.65260    -15.944883
   1.62058    -15.944340
   1.58855    -15.943924
   1.55653    -15.943610
   1.52450    -15.943419
   1.49247    -15.943211
   1.46045    -15.943117
   1.42842    -15.943082
   1.42842    -15.943082
   1.39539    -15.943172
   1.36237    -15.943311
   1.32934    -15.943573
   1.29631    -15.943904
   1.26328    -15.944374
   1.23025    -15.944983
   1.19722    -15.945795
   1.16419    -15.946884
   1.13116    -15.948308
   1.09813    -15.950152
   1.06510    -15.952559
   1.03207    -15.955514
   0.99904    -15.959081
   0.96601    -15.963184
   0.93298    -15.967603
   0.89995    -15.972183
   0.86692    -15.976810
   0.83389    -15.981272
   0.80086    -15.985482
   0.80086    -15.985483
   0.75902    -15.990203
   0.71719    -15.994095
   0.67535    -15.997018
   0.63351    -15.998826
   0.59167    -15.999420
   0.59167    -15.999420
   0.55880    -15.991930
   0.52593    -15.984793
   0.49306    -15.978111
   0.46019    -15.971985
   0.42732    -15.966527
   0.39445    -15.961784
   0.36158    -15.957752
   0.32871    -15.954442
   0.29584    -15.951754
   0.26297    -15.949588
   0.23009    -15.947857
   0.19722    -15.946469
   0.16435    -15.945370
   0.13148    -15.944508
   0.09861    -15.943860
   0.06574    -15.943411
   0.03287    -15.943149
   0.00000    -15.943082
 
# Band-Index:   11
   0.00000    -15.943080
   0.03287    -15.942983
   0.06574    -15.942537
   0.09861    -15.941810
   0.13148    -15.940753
   0.16435    -15.939441
   0.19722    -15.937874
   0.23009    -15.936066
   0.26297    -15.934030
   0.29584    -15.931819
   0.32871    -15.932934
   0.36158    -15.934016
   0.39445    -15.934832
   0.42732    -15.935337
   0.46019    -15.935615
   0.49306    -15.935619
   0.52593    -15.935370
   0.55880    -15.934876
   0.59167    -15.934131
   0.59167    -15.934131
   0.63351    -15.934219
   0.67535    -15.934386
   0.71719    -15.934593
   0.75902    -15.934764
   0.80086    -15.934858
   0.80086    -15.934845
   0.83389    -15.934780
   0.86692    -15.934649
   0.89995    -15.934441
   0.93298    -15.934176
   0.96601    -15.933875
   0.99904    -15.933590
   1.03207    -15.933386
   1.06510    -15.933379
   1.09813    -15.933602
   1.13116    -15.934755
   1.16419    -15.936412
   1.19722    -15.937907
   1.23025    -15.939253
   1.26328    -15.940430
   1.29631    -15.941391
   1.32934    -15.942152
   1.36237    -15.942695
   1.39539    -15.943025
   1.42842    -15.943080
   1.42842    -15.943080
   1.46045    -15.942985
   1.49247    -15.942639
   1.52450    -15.942101
   1.55653    -15.941301
   1.58855    -15.940323
   1.62058    -15.939222
   1.65260    -15.938025
   1.68463    -15.936841
   1.71665    -15.935756
   1.74868    -15.934836
   1.78070    -15.934109
   1.81273    -15.933595
   1.84475    -15.933249
   1.87678    -15.933033
   1.90880    -15.932887
   1.94083    -15.932849
   1.94083    -15.932849
   1.97569    -15.932828
   2.01056    -15.932821
   2.04542    -15.932881
   2.08029    -15.933069
   2.11515    -15.933386
   2.15002    -15.933782
   2.18488    -15.934201
   2.21975    -15.934508
   2.25461    -15.934698
   2.28947    -15.934722
   2.32434    -15.934566
   2.35920    -15.934295
   2.35920    -15.934295
   2.39618    -15.934278
   2.43316    -15.934274
   2.47014    -15.934263
   2.50712    -15.934223
   2.54410    -15.934198
   2.58108    -15.934182
   2.61806    -15.934136
   2.65504    -15.934131
 
# Band-Index:   12
   2.65504    -15.934127
   2.61806    -15.934132
   2.58108    -15.934177
   2.54410    -15.934192
   2.50712    -15.934216
   2.47014    -15.934254
   2.43316    -15.934263
   2.39618    -15.934265
   2.35920    -15.934281
   2.35920    -15.934281
   2.32434    -15.933832
   2.28947    -15.933255
   2.25461    -15.932596
   2.21975    -15.931846
   2.18488    -15.931056
   2.15002    -15.930262
   2.11515    -15.929603
   2.08029    -15.930184
   2.04542    -15.931308
   2.01056    -15.932155
   1.97569    -15.932668
   1.94083    -15.932846
   1.94083    -15.932846
   1.90880    -15.932884
   1.87678    -15.933031
   1.84475    -15.933246
   1.81273    -15.933592
   1.78070    -15.934106
   1.74868    -15.934833
   1.71665    -15.935753
   1.68463    -15.936838
   1.65260    -15.938023
   1.62058    -15.939219
   1.58855    -15.940321
   1.55653    -15.941299
   1.52450    -15.942099
   1.49247    -15.942637
   1.46045    -15.942983
   1.42842    -15.943066
   1.42842    -15.943066
   1.39539    -15.942944
   1.36237    -15.942530
   1.32934    -15.941778
   1.29631    -15.940750
   1.26328    -15.939502
   1.23025    -15.938091
   1.19722    -15.936636
   1.16419    -15.935315
   1.13116    -15.934252
   1.09813    -15.932960
   1.06510    -15.931055
   1.03207    -15.929062
   0.99904    -15.927017
   0.96601    -15.928247
   0.93298    -15.929713
   0.89995    -15.930822
   0.86692    -15.931676
   0.83389    -15.932314
   0.80086    -15.932849
   0.80086    -15.932851
   0.75902    -15.933317
   0.71719    -15.933667
   0.67535    -15.933928
   0.63351    -15.934092
   0.59167    -15.934127
   0.59167    -15.934127
   0.55880    -15.933119
   0.52593    -15.931830
   0.49306    -15.930170
   0.46019    -15.928175
   0.42732    -15.925760
   0.39445    -15.924317
   0.36158    -15.926914
   0.32871    -15.929427
   0.29584    -15.931811
   0.26297    -15.934021
   0.23009    -15.936057
   0.19722    -15.937866
   0.16435    -15.939433
   0.13148    -15.940745
   0.09861    -15.941802
   0.06574    -15.942530
   0.03287    -15.942975
   0.00000    -15.943066
 
# Band-Index:   13
   0.00000    -15.918643
   0.03287    -15.918897
   0.06574    -15.919680
   0.09861    -15.920893
   0.13148    -15.922506
   0.16435    -15.924347
   0.19722    -15.926294
   0.23009    -15.928205
   0.26297    -15.930003
   0.29584    -15.931582
   0.32871    -15.929418
   0.36158    -15.926905
   0.39445    -15.924308
   0.42732    -15.921741
   0.46019    -15.919107
   0.49306    -15.916567
   0.52593    -15.914225
   0.55880    -15.912324
   0.59167    -15.911521
   0.59167    -15.911521
   0.63351    -15.911667
   0.67535    -15.912132
   0.71719    -15.912930
   0.75902    -15.914141
   0.80086    -15.915740
   0.80086    -15.915747
   0.83389    -15.917279
   0.86692    -15.919015
   0.89995    -15.920903
   0.93298    -15.922899
   0.96601    -15.924955
   0.99904    -15.926351
   1.03207    -15.923966
   1.06510    -15.923365
   1.09813    -15.923609
   1.13116    -15.923692
   1.16419    -15.923541
   1.19722    -15.923169
   1.23025    -15.922620
   1.26328    -15.921845
   1.29631    -15.920964
   1.32934    -15.920118
   1.36237    -15.919348
   1.39539    -15.918819
   1.42842    -15.918643
   1.42842    -15.918643
   1.46045    -15.918733
   1.49247    -15.919022
   1.52450    -15.919443
   1.55653    -15.919875
   1.58855    -15.920260
   1.62058    -15.920464
   1.65260    -15.920388
   1.68463    -15.919963
   1.71665    -15.919124
   1.74868    -15.917782
   1.78070    -15.919753
   1.81273    -15.922424
   1.84475    -15.924528
   1.87678    -15.925962
   1.90880    -15.926823
   1.94083    -15.927109
   1.94083    -15.927109
   1.97569    -15.927206
   2.01056    -15.927499
   2.04542    -15.927954
   2.08029    -15.928507
   2.11515    -15.928297
   2.15002    -15.926571
   2.18488    -15.924406
   2.21975    -15.921907
   2.25461    -15.919159
   2.28947    -15.916187
   2.32434    -15.913143
   2.35920    -15.910812
   2.35920    -15.910812
   2.39618    -15.910871
   2.43316    -15.911016
   2.47014    -15.911177
   2.50712    -15.911284
   2.54410    -15.911396
   2.58108    -15.911480
   2.61806    -15.911503
   2.65504    -15.911521
 
# Band-Index:   14
   2.65504    -15.911506
   2.61806    -15.911488
   2.58108    -15.911466
   2.54410    -15.911382
   2.50712    -15.911270
   2.47014    -15.911163
   2.43316    -15.911003
   2.39618    -15.910860
   2.35920    -15.910801
   2.35920    -15.910801
   2.32434    -15.910537
   2.28947    -15.910548
   2.25461    -15.910552
   2.21975    -15.910445
   2.18488    -15.910224
   2.15002    -15.909835
   2.11515    -15.909286
   2.08029    -15.908544
   2.04542    -15.907683
   2.01056    -15.906848
   1.97569    -15.906181
   1.94083    -15.905921
   1.94083    -15.905921
   1.90880    -15.906840
   1.87678    -15.908912
   1.84475    -15.911336
   1.81273    -15.913778
   1.78070    -15.915967
   1.74868    -15.917780
   1.71665    -15.919122
   1.68463    -15.919961
   1.65260    -15.920387
   1.62058    -15.920463
   1.58855    -15.920259
   1.55653    -15.919874
   1.52450    -15.919441
   1.49247    -15.919021
   1.46045    -15.918732
   1.42842    -15.918642
   1.42842    -15.918642
   1.39539    -15.918661
   1.36237    -15.918752
   1.32934    -15.918930
   1.29631    -15.919037
   1.26328    -15.919123
   1.23025    -15.919087
   1.19722    -15.918735
   1.16419    -15.917989
   1.13116    -15.916642
   1.09813    -15.917743
   1.06510    -15.921073
   1.03207    -15.922905
   0.99904    -15.922253
   0.96601    -15.921414
   0.93298    -15.920422
   0.89995    -15.919245
   0.86692    -15.917919
   0.83389    -15.916418
   0.80086    -15.914774
   0.80086    -15.914764
   0.75902    -15.912518
   0.71719    -15.910119
   0.67535    -15.910857
   0.63351    -15.911358
   0.59167    -15.911506
   0.59167    -15.911506
   0.55880    -15.912311
   0.52593    -15.914213
   0.49306    -15.916556
   0.46019    -15.919097
   0.42732    -15.921731
   0.39445    -15.922955
   0.36158    -15.919780
   0.32871    -15.916359
   0.29584    -15.913945
   0.26297    -15.915101
   0.23009    -15.916046
   0.19722    -15.916843
   0.16435    -15.917405
   0.13148    -15.917897
   0.09861    -15.918204
   0.06574    -15.918439
   0.03287    -15.918582
   0.00000    -15.918642
 
# Band-Index:   15
   0.00000    -15.892840
   0.03287    -15.893109
   0.06574    -15.893964
   0.09861    -15.895376
   0.13148    -15.897319
   0.16435    -15.899729
   0.19722    -15.902593
   0.23009    -15.905742
   0.26297    -15.909195
   0.29584    -15.912765
   0.32871    -15.912570
   0.36158    -15.910962
   0.39445    -15.909112
   0.42732    -15.906983
   0.46019    -15.904555
   0.49306    -15.901830
   0.52593    -15.903000
   0.55880    -15.904260
   0.59167    -15.904876
   0.59167    -15.904876
   0.63351    -15.905738
   0.67535    -15.907744
   0.71719    -15.910054
   0.75902    -15.909097
   0.80086    -15.908075
   0.80086    -15.908079
   0.83389    -15.907296
   0.86692    -15.906637
   0.89995    -15.906170
   0.93298    -15.906053
   0.96601    -15.906499
   0.99904    -15.907781
   1.03207    -15.909835
   1.06510    -15.912323
   1.09813    -15.914694
   1.13116    -15.914142
   1.16419    -15.910425
   1.19722    -15.906799
   1.23025    -15.903388
   1.26328    -15.900356
   1.29631    -15.897739
   1.32934    -15.895627
   1.36237    -15.894073
   1.39539    -15.893134
   1.42842    -15.892840
   1.42842    -15.892840
   1.46045    -15.893119
   1.49247    -15.894026
   1.52450    -15.895520
   1.55653    -15.897545
   1.58855    -15.900045
   1.62058    -15.902996
   1.65260    -15.906259
   1.68463    -15.909750
   1.71665    -15.913267
   1.74868    -15.916664
   1.78070    -15.915966
   1.81273    -15.913777
   1.84475    -15.911335
   1.87678    -15.908911
   1.90880    -15.906839
   1.94083    -15.905920
   1.94083    -15.905920
   1.97569    -15.906116
   2.01056    -15.906578
   2.04542    -15.907151
   2.08029    -15.907710
   2.11515    -15.908246
   2.15002    -15.908663
   2.18488    -15.909041
   2.21975    -15.909363
   2.25461    -15.909618
   2.28947    -15.909827
   2.32434    -15.909945
   2.35920    -15.909296
   2.35920    -15.909296
   2.39618    -15.909120
   2.43316    -15.908678
   2.47014    -15.908042
   2.50712    -15.907282
   2.54410    -15.906463
   2.58108    -15.905693
   2.61806    -15.905096
   2.65504    -15.904876
 
# Band-Index:   16
   2.65504    -15.904871
   2.61806    -15.905090
   2.58108    -15.905685
   2.54410    -15.906455
   2.50712    -15.907273
   2.47014    -15.908034
   2.43316    -15.908671
   2.39618    -15.909113
   2.35920    -15.909289
   2.35920    -15.909289
   2.32434    -15.906551
   2.28947    -15.903716
   2.25461    -15.901285
   2.21975    -15.899418
   2.18488    -15.898204
   2.15002    -15.897584
   2.11515    -15.897475
   2.08029    -15.897687
   2.04542    -15.898127
   2.01056    -15.898632
   1.97569    -15.899066
   1.94083    -15.899248
   1.94083    -15.899248
   1.90880    -15.898649
   1.87678    -15.897520
   1.84475    -15.896419
   1.81273    -15.895541
   1.78070    -15.894848
   1.74868    -15.894352
   1.71665    -15.893991
   1.68463    -15.893688
   1.65260    -15.893456
   1.62058    -15.893277
   1.58855    -15.893129
   1.55653    -15.893025
   1.52450    -15.892949
   1.49247    -15.892876
   1.46045    -15.892838
   1.42842    -15.892839
   1.42842    -15.892839
   1.39539    -15.892853
   1.36237    -15.892944
   1.32934    -15.893101
   1.29631    -15.893311
   1.26328    -15.893567
   1.23025    -15.893842
   1.19722    -15.894130
   1.16419    -15.894437
   1.13116    -15.894702
   1.09813    -15.894844
   1.06510    -15.894754
   1.03207    -15.894164
   0.99904    -15.893440
   0.96601    -15.893484
   0.93298    -15.893517
   0.89995    -15.893496
   0.86692    -15.893438
   0.83389    -15.893658
   0.80086    -15.896470
   0.80086    -15.896462
   0.75902    -15.899468
   0.71719    -15.901818
   0.67535    -15.903531
   0.63351    -15.904563
   0.59167    -15.904871
   0.59167    -15.904871
   0.55880    -15.904254
   0.52593    -15.902992
   0.49306    -15.901524
   0.46019    -15.900146
   0.42732    -15.898878
   0.39445    -15.897799
   0.36158    -15.896862
   0.32871    -15.896081
   0.29584    -15.895404
   0.26297    -15.894850
   0.23009    -15.894360
   0.19722    -15.893941
   0.16435    -15.893600
   0.13148    -15.893333
   0.09861    -15.893118
   0.06574    -15.892948
   0.03287    -15.892856
   0.00000    -15.892839
 
# Band-Index:   17
   0.00000    -15.892829
   0.03287    -15.892849
   0.06574    -15.892941
   0.09861    -15.893111
   0.13148    -15.893326
   0.16435    -15.893593
   0.19722    -15.893934
   0.23009    -15.894351
   0.26297    -15.894842
   0.29584    -15.895395
   0.32871    -15.896072
   0.36158    -15.896853
   0.39445    -15.897790
   0.42732    -15.898869
   0.46019    -15.900137
   0.49306    -15.901516
   0.52593    -15.898774
   0.55880    -15.895446
   0.59167    -15.891815
   0.59167    -15.891815
   0.63351    -15.891908
   0.67535    -15.892154
   0.71719    -15.892500
   0.75902    -15.892849
   0.80086    -15.893155
   0.80086    -15.893159
   0.83389    -15.893337
   0.86692    -15.890540
   0.89995    -15.887080
   0.93298    -15.886883
   0.96601    -15.890272
   0.99904    -15.892760
   1.03207    -15.893362
   1.06510    -15.893290
   1.09813    -15.893220
   1.13116    -15.893147
   1.16419    -15.893090
   1.19722    -15.893022
   1.23025    -15.892965
   1.26328    -15.892939
   1.29631    -15.892905
   1.32934    -15.892870
   1.36237    -15.892845
   1.39539    -15.892830
   1.42842    -15.892829
   1.42842    -15.892829
   1.46045    -15.892838
   1.49247    -15.892876
   1.52450    -15.892949
   1.55653    -15.893024
   1.58855    -15.893128
   1.62058    -15.893277
   1.65260    -15.893455
   1.68463    -15.893687
   1.71665    -15.893990
   1.74868    -15.894352
   1.78070    -15.894848
   1.81273    -15.895541
   1.84475    -15.896418
   1.87678    -15.897519
   1.90880    -15.898648
   1.94083    -15.899246
   1.94083    -15.899246
   1.97569    -15.898849
   2.01056    -15.897807
   2.04542    -15.896328
   2.08029    -15.894571
   2.11515    -15.892678
   2.15002    -15.890676
   2.18488    -15.888698
   2.21975    -15.886803
   2.25461    -15.885125
   2.28947    -15.883726
   2.32434    -15.882665
   2.35920    -15.881875
   2.35920    -15.881875
   2.39618    -15.882272
   2.43316    -15.883418
   2.47014    -15.885033
   2.50712    -15.886862
   2.54410    -15.888711
   2.58108    -15.890309
   2.61806    -15.891411
   2.65504    -15.891815
 
# Band-Index:   18
   2.65504    -15.891809
   2.61806    -15.891403
   2.58108    -15.890300
   2.54410    -15.888700
   2.50712    -15.886852
   2.47014    -15.885024
   2.43316    -15.883410
   2.39618    -15.882266
   2.35920    -15.881870
   2.35920    -15.881870
   2.32434    -15.881215
   2.28947    -15.880600
   2.25461    -15.879857
   2.21975    -15.878878
   2.18488    -15.877621
   2.15002    -15.876139
   2.11515    -15.874617
   2.08029    -15.873165
   2.04542    -15.871935
   2.01056    -15.870992
   1.97569    -15.870403
   1.94083    -15.870210
   1.94083    -15.870210
   1.90880    -15.869692
   1.87678    -15.868238
   1.84475    -15.865965
   1.81273    -15.863035
   1.78070    -15.859722
   1.74868    -15.856188
   1.71665    -15.852573
   1.68463    -15.849011
   1.65260    -15.845570
   1.62058    -15.842366
   1.58855    -15.839458
   1.55653    -15.836986
   1.52450    -15.834969
   1.49247    -15.833440
   1.46045    -15.832511
   1.42842    -15.832231
   1.42842    -15.832231
   1.39539    -15.832601
   1.36237    -15.833798
   1.32934    -15.835761
   1.29631    -15.838358
   1.26328    -15.841516
   1.23025    -15.845097
   1.19722    -15.849071
   1.16419    -15.853283
   1.13116    -15.857612
   1.09813    -15.862076
   1.06510    -15.866542
   1.03207    -15.870956
   0.99904    -15.875260
   0.96601    -15.879410
   0.93298    -15.883368
   0.89995    -15.882899
   0.86692    -15.878699
   0.83389    -15.874539
   0.80086    -15.876633
   0.80086    -15.876623
   0.75902    -15.880735
   0.71719    -15.884611
   0.67535    -15.888083
   0.63351    -15.890727
   0.59167    -15.891809
   0.59167    -15.891809
   0.55880    -15.887910
   0.52593    -15.883775
   0.49306    -15.879468
   0.46019    -15.875005
   0.42732    -15.870438
   0.39445    -15.865881
   0.36158    -15.861359
   0.32871    -15.856987
   0.29584    -15.852810
   0.26297    -15.848872
   0.23009    -15.845220
   0.19722    -15.841972
   0.16435    -15.839073
   0.13148    -15.836672
   0.09861    -15.834750
   0.06574    -15.833333
   0.03287    -15.832488
   0.00000    -15.832231
 
# Band-Index:   19
   0.00000    -15.832211
   0.03287    -15.832399
   0.06574    -15.832962
   0.09861    -15.833887
   0.13148    -15.835135
   0.16435    -15.836649
   0.19722    -15.838388
   0.23009    -15.840308
   0.26297    -15.842353
   0.29584    -15.844456
   0.32871    -15.846591
   0.36158    -15.848674
   0.39445    -15.850701
   0.42732    -15.852534
   0.46019    -15.854188
   0.49306    -15.855524
   0.52593    -15.856522
   0.55880    -15.857134
   0.59167    -15.857340
   0.59167    -15.857340
   0.63351    -15.857903
   0.67535    -15.859602
   0.71719    -15.862368
   0.75902    -15.866110
   0.80086    -15.870595
   0.80086    -15.870581
   0.83389    -15.873317
   0.86692    -15.869964
   0.89995    -15.866587
   0.93298    -15.863268
   0.96601    -15.859966
   0.99904    -15.856793
   1.03207    -15.853704
   1.06510    -15.850740
   1.09813    -15.847916
   1.13116    -15.845274
   1.16419    -15.842803
   1.19722    -15.840519
   1.23025    -15.838493
   1.26328    -15.836705
   1.29631    -15.835157
   1.32934    -15.833903
   1.36237    -15.832963
   1.39539    -15.832396
   1.42842    -15.832211
   1.42842    -15.832211
   1.46045    -15.832510
   1.49247    -15.833439
   1.52450    -15.834968
   1.55653    -15.836985
   1.58855    -15.839458
   1.62058    -15.842366
   1.65260    -15.845570
   1.68463    -15.849010
   1.71665    -15.852573
   1.74868    -15.856187
   1.78070    -15.859722
   1.81273    -15.863035
   1.84475    -15.865965
   1.87678    -15.868238
   1.90880    -15.869692
   1.94083    -15.870209
   1.94083    -15.870209
   1.97569    -15.870204
   2.01056    -15.870185
   2.04542    -15.870141
   2.08029    -15.870062
   2.11515    -15.869937
   2.15002    -15.869691
   2.18488    -15.869294
   2.21975    -15.868643
   2.25461    -15.867675
   2.28947    -15.866266
   2.32434    -15.864398
   2.35920    -15.862103
   2.35920    -15.862103
   2.39618    -15.861835
   2.43316    -15.861176
   2.47014    -15.860280
   2.50712    -15.859321
   2.54410    -15.858494
   2.58108    -15.857848
   2.61806    -15.857479
   2.65504    -15.857340
 
# Band-Index:   20
   2.65504    -15.857337
   2.61806    -15.857476
   2.58108    -15.857844
   2.54410    -15.858491
   2.50712    -15.859317
   2.47014    -15.860276
   2.43316    -15.861172
   2.39618    -15.861831
   2.35920    -15.862100
   2.35920    -15.862100
   2.32434    -15.859383
   2.28947    -15.856385
   2.25461    -15.853173
   2.21975    -15.849837
   2.18488    -15.846499
   2.15002    -15.843247
   2.11515    -15.840241
   2.08029    -15.837526
   2.04542    -15.835300
   2.01056    -15.833644
   1.97569    -15.832625
   1.94083    -15.832267
   1.94083    -15.832267
   1.90880    -15.832270
   1.87678    -15.832276
   1.84475    -15.832280
   1.81273    -15.832308
   1.78070    -15.832278
   1.74868    -15.832279
   1.71665    -15.832287
   1.68463    -15.832242
   1.65260    -15.832231
   1.62058    -15.832245
   1.58855    -15.832242
   1.55653    -15.832235
   1.52450    -15.832232
   1.49247    -15.832222
   1.46045    -15.832219
   1.42842    -15.832210
   1.42842    -15.832210
   1.39539    -15.832282
   1.36237    -15.832500
   1.32934    -15.832866
   1.29631    -15.833358
   1.26328    -15.833990
   1.23025    -15.834758
   1.19722    -15.835640
   1.16419    -15.836667
   1.13116    -15.837795
   1.09813    -15.839031
   1.06510    -15.840366
   1.03207    -15.841793
   0.99904    -15.843298
   0.96601    -15.844833
   0.93298    -15.846416
   0.89995    -15.847971
   0.86692    -15.849516
   0.83389    -15.851021
   0.80086    -15.852405
   0.80086    -15.852419
   0.75902    -15.854051
   0.71719    -15.855397
   0.67535    -15.856444
   0.63351    -15.857096
   0.59167    -15.857337
   0.59167    -15.857337
   0.55880    -15.857130
   0.52593    -15.856518
   0.49306    -15.855520
   0.46019    -15.854184
   0.42732    -15.852529
   0.39445    -15.850695
   0.36158    -15.848667
   0.32871    -15.846583
   0.29584    -15.844448
   0.26297    -15.842344
   0.23009    -15.840298
   0.19722    -15.838377
   0.16435    -15.836638
   0.13148    -15.835123
   0.09861    -15.833875
   0.06574    -15.832949
   0.03287    -15.832387
   0.00000    -15.832210
 
# Band-Index:   21
   0.00000    -15.253059
   0.03287    -15.250637
   0.06574    -15.243393
   0.09861    -15.231260
   0.13148    -15.214161
   0.16435    -15.192040
   0.19722    -15.164847
   0.23009    -15.132562
   0.26297    -15.095256
   0.29584    -15.053022
   0.32871    -15.006073
   0.36158    -14.954688
   0.39445    -14.899248
   0.42732    -14.840203
   0.46019    -14.778096
   0.49306    -14.713642
   0.52593    -14.647601
   0.55880    -14.580851
   0.59167    -14.514375
   0.59167    -14.514375
   0.63351    -14.516385
   0.67535    -14.522994
   0.71719    -14.535823
   0.75902    -14.557300
   0.80086    -14.589732
   0.80086    -14.589732
   0.83389    -14.623803
   0.86692    -14.664820
   0.89995    -14.711423
   0.93298    -14.761835
   0.96601    -14.814240
   0.99904    -14.867025
   1.03207    -14.918872
   1.06510    -14.968730
   1.09813    -15.015794
   1.13116    -15.059450
   1.16419    -15.099233
   1.19722    -15.134800
   1.23025    -15.165922
   1.26328    -15.192432
   1.29631    -15.214202
   1.32934    -15.231181
   1.36237    -15.243327
   1.39539    -15.250615
   1.42842    -15.253059
   1.42842    -15.253059
   1.46045    -15.250761
   1.49247    -15.243918
   1.52450    -15.232537
   1.55653    -15.216648
   1.58855    -15.196357
   1.62058    -15.171756
   1.65260    -15.142996
   1.68463    -15.110297
   1.71665    -15.073981
   1.74868    -15.034499
   1.78070    -14.992560
   1.81273    -14.949283
   1.84475    -14.906556
   1.87678    -14.867747
   1.90880    -14.838750
   1.94083    -14.827601
   1.94083    -14.827601
   1.97569    -14.824884
   2.01056    -14.816771
   2.04542    -14.803351
   2.08029    -14.784777
   2.11515    -14.761268
   2.15002    -14.733119
   2.18488    -14.700722
   2.21975    -14.664594
   2.25461    -14.625427
   2.28947    -14.584123
   2.32434    -14.541951
   2.35920    -14.500673
   2.35920    -14.500673
   2.39618    -14.501229
   2.43316    -14.502801
   2.47014    -14.505112
   2.50712    -14.507763
   2.54410    -14.510348
   2.58108    -14.512484
   2.61806    -14.513889
   2.65504    -14.514375
 
# Band-Index:   22
   2.65504    -14.514369
   2.61806    -14.513884
   2.58108    -14.512479
   2.54410    -14.510343
   2.50712    -14.507757
   2.47014    -14.505106
   2.43316    -14.502795
   2.39618    -14.501224
   2.35920    -14.500667
   2.35920    -14.500667
   2.32434    -14.462740
   2.28947    -14.431445
   2.25461    -14.410434
   2.21975    -14.402257
   2.18488    -14.406547
   2.15002    -14.419982
   2.11515    -14.438201
   2.08029    -14.457384
   2.04542    -14.474732
   2.01056    -14.488330
   1.97569    -14.496945
   1.94083    -14.499894
   1.94083    -14.499894
   1.90880    -14.486945
   1.87678    -14.452630
   1.84475    -14.405213
   1.81273    -14.350959
   1.78070    -14.293807
   1.74868    -14.236408
   1.71665    -14.180855
   1.68463    -14.129086
   1.65260    -14.083076
   1.62058    -14.044744
   1.58855    -14.015435
   1.55653    -13.995193
   1.52450    -13.982545
   1.49247    -13.975346
   1.46045    -13.971763
   1.42842    -13.970702
   1.42842    -13.970702
   1.39539    -13.971825
   1.36237    -13.975518
   1.32934    -13.982490
   1.29631    -13.993564
   1.26328    -14.009292
   1.23025    -14.029730
   1.19722    -14.054495
   1.16419    -14.082924
   1.13116    -14.114258
   1.09813    -14.147682
   1.06510    -14.182462
   1.03207    -14.217890
   0.99904    -14.253328
   0.96601    -14.288184
   0.93298    -14.321937
   0.89995    -14.354102
   0.86692    -14.384239
   0.83389    -14.411954
   0.80086    -14.436904
   0.80086    -14.436904
   0.75902    -14.464070
   0.71719    -14.485752
   0.67535    -14.501552
   0.63351    -14.511154
   0.59167    -14.514369
   0.59167    -14.514369
   0.55880    -14.449218
   0.52593    -14.386469
   0.49306    -14.327126
   0.46019    -14.272104
   0.42732    -14.222049
   0.39445    -14.177352
   0.36158    -14.138094
   0.32871    -14.104120
   0.29584    -14.075083
   0.26297    -14.050561
   0.23009    -14.030094
   0.19722    -14.013232
   0.16435    -13.999599
   0.13148    -13.988866
   0.09861    -13.980773
   0.06574    -13.975127
   0.03287    -13.971791
   0.00000    -13.970702
 
# Band-Index:   23
   0.00000    -13.765689
   0.03287    -13.764854
   0.06574    -13.762409
   0.09861    -13.758403
   0.13148    -13.752937
   0.16435    -13.746148
   0.19722    -13.738225
   0.23009    -13.729357
   0.26297    -13.719794
   0.29584    -13.709796
   0.32871    -13.699664
   0.36158    -13.689694
   0.39445    -13.680212
   0.42732    -13.671505
   0.46019    -13.663889
   0.49306    -13.657641
   0.52593    -13.652996
   0.55880    -13.650136
   0.59167    -13.649187
   0.59167    -13.649187
   0.63351    -13.695750
   0.67535    -13.772985
   0.71719    -13.848298
   0.75902    -13.913408
   0.80086    -13.963497
   0.80086    -13.963497
   0.83389    -13.990725
   0.86692    -14.007032
   0.89995    -14.013362
   0.93298    -14.011203
   0.96601    -14.002199
   0.99904    -13.987884
   1.03207    -13.969605
   1.06510    -13.948535
   1.09813    -13.925695
   1.13116    -13.901996
   1.16419    -13.878267
   1.19722    -13.855281
   1.23025    -13.833740
   1.26328    -13.814292
   1.29631    -13.797514
   1.32934    -13.783909
   1.36237    -13.773883
   1.39539    -13.767743
   1.42842    -13.765689
   1.42842    -13.765689
   1.46045    -13.768510
   1.49247    -13.776546
   1.52450    -13.788371
   1.55653    -13.801661
   1.58855    -13.813650
   1.62058    -13.822137
   1.65260    -13.826372
   1.68463    -13.826880
   1.71665    -13.824699
   1.74868    -13.820852
   1.78070    -13.816211
   1.81273    -13.811475
   1.84475    -13.807200
   1.87678    -13.803826
   1.90880    -13.801670
   1.94083    -13.800932
   1.94083    -13.800932
   1.97569    -13.804933
   2.01056    -13.816815
   2.04542    -13.836007
   2.08029    -13.861104
   2.11515    -13.889554
   2.15002    -13.917527
   2.18488    -13.940082
   2.21975    -13.951823
   2.25461    -13.948627
   2.28947    -13.929496
   2.32434    -13.896631
   2.35920    -13.853499
   2.35920    -13.853499
   2.39618    -13.848842
   2.43316    -13.835060
   2.47014    -13.812763
   2.50712    -13.782867
   2.54410    -13.746802
   2.58108    -13.706873
   2.61806    -13.668579
   2.65504    -13.649187
 
# Band-Index:   24
   2.65504    -13.649187
   2.61806    -13.668578
   2.58108    -13.706871
   2.54410    -13.746799
   2.50712    -13.782864
   2.47014    -13.812759
   2.43316    -13.835056
   2.39618    -13.848838
   2.35920    -13.853496
   2.35920    -13.853496
   2.32434    -13.803287
   2.28947    -13.748620
   2.25461    -13.691490
   2.21975    -13.633487
   2.18488    -13.576009
   2.15002    -13.520231
   2.11515    -13.467312
   2.08029    -13.418324
   2.04542    -13.374553
   2.01056    -13.337678
   1.97569    -13.310931
   1.94083    -13.300481
   1.94083    -13.300481
   1.90880    -13.319477
   1.87678    -13.358255
   1.84475    -13.401990
   1.81273    -13.446528
   1.78070    -13.490344
   1.74868    -13.532614
   1.71665    -13.572726
   1.68463    -13.610161
   1.65260    -13.644469
   1.62058    -13.675211
   1.58855    -13.701994
   1.55653    -13.724456
   1.52450    -13.742285
   1.49247    -13.755212
   1.46045    -13.763049
   1.42842    -13.765689
   1.42842    -13.765689
   1.39539    -13.764818
   1.36237    -13.761944
   1.32934    -13.756286
   1.29631    -13.746958
   1.26328    -13.733357
   1.23025    -13.715392
   1.19722    -13.693479
   1.16419    -13.668397
   1.13116    -13.641154
   1.09813    -13.612930
   1.06510    -13.585017
   1.03207    -13.558799
   0.99904    -13.535630
   0.96601    -13.516722
   0.93298    -13.502898
   0.89995    -13.494391
   0.86692    -13.490818
   0.83389    -13.491263
   0.80086    -13.516712
   0.80086    -13.516713
   0.75902    -13.562655
   0.71719    -13.599720
   0.67535    -13.626945
   0.63351    -13.643589
   0.59167    -13.649187
   0.59167    -13.649187
   0.55880    -13.650136
   0.52593    -13.652995
   0.49306    -13.657640
   0.46019    -13.663888
   0.42732    -13.671504
   0.39445    -13.680212
   0.36158    -13.689693
   0.32871    -13.699663
   0.29584    -13.709795
   0.26297    -13.719793
   0.23009    -13.729356
   0.19722    -13.738224
   0.16435    -13.746147
   0.13148    -13.752936
   0.09861    -13.758401
   0.06574    -13.762407
   0.03287    -13.764853
   0.00000    -13.765689
 
# Band-Index:   25
   0.00000    -13.765688
   0.03287    -13.764810
   0.06574    -13.762228
   0.09861    -13.757976
   0.13148    -13.752117
   0.16435    -13.744741
   0.19722    -13.735947
   0.23009    -13.725817
   0.26297    -13.714433
   0.29584    -13.701845
   0.32871    -13.688081
   0.36158    -13.673109
   0.39445    -13.656872
   0.42732    -13.639192
   0.46019    -13.619858
   0.49306    -13.598642
   0.52593    -13.575165
   0.55880    -13.549008
   0.59167    -13.519698
   0.59167    -13.519698
   0.63351    -13.518280
   0.67535    -13.514233
   0.71719    -13.508131
   0.75902    -13.501046
   0.80086    -13.494579
   0.80086    -13.494578
   0.83389    -13.474957
   0.86692    -13.429027
   0.89995    -13.379601
   0.93298    -13.327411
   0.96601    -13.273164
   0.99904    -13.274794
   1.03207    -13.331992
   1.06510    -13.388729
   1.09813    -13.444208
   1.13116    -13.497624
   1.16419    -13.548199
   1.19722    -13.595146
   1.23025    -13.637704
   1.26328    -13.675167
   1.29631    -13.706859
   1.32934    -13.732191
   1.36237    -13.750663
   1.39539    -13.761902
   1.42842    -13.765688
   1.42842    -13.765688
   1.46045    -13.763048
   1.49247    -13.755211
   1.52450    -13.742283
   1.55653    -13.724455
   1.58855    -13.701993
   1.62058    -13.675210
   1.65260    -13.644468
   1.68463    -13.610160
   1.71665    -13.572725
   1.74868    -13.532613
   1.78070    -13.490343
   1.81273    -13.446526
   1.84475    -13.401989
   1.87678    -13.358253
   1.90880    -13.319476
   1.94083    -13.300480
   1.94083    -13.300480
   1.97569    -13.306005
   2.01056    -13.317162
   2.04542    -13.326380
   2.08029    -13.329805
   2.11515    -13.326237
   2.15002    -13.315845
   2.18488    -13.299597
   2.21975    -13.278726
   2.25461    -13.254623
   2.28947    -13.228736
   2.32434    -13.202579
   2.35920    -13.177844
   2.35920    -13.177844
   2.39618    -13.193365
   2.43316    -13.231849
   2.47014    -13.281960
   2.50712    -13.337322
   2.54410    -13.394310
   2.58108    -13.449566
   2.61806    -13.497184
   2.65504    -13.519698
 
# Band-Index:   26
   2.65504    -13.519693
   2.61806    -13.497179
   2.58108    -13.449562
   2.54410    -13.394307
   2.50712    -13.337319
   2.47014    -13.281957
   2.43316    -13.231847
   2.39618    -13.193362
   2.35920    -13.177842
   2.35920    -13.177842
   2.32434    -13.156257
   2.28947    -13.139460
   2.25461    -13.128448
   2.21975    -13.123336
   2.18488    -13.123477
   2.15002    -13.127923
   2.11515    -13.135847
   2.08029    -13.146595
   2.04542    -13.159613
   2.01056    -13.173848
   1.97569    -13.186725
   1.94083    -13.192500
   1.94083    -13.192500
   1.90880    -13.173549
   1.87678    -13.134932
   1.84475    -13.091455
   1.81273    -13.047312
   1.78070    -13.003972
   1.74868    -12.962295
   1.71665    -12.922867
   1.68463    -12.886160
   1.65260    -12.852623
   1.62058    -12.822692
   1.58855    -12.796710
   1.55653    -12.774956
   1.52450    -12.757768
   1.49247    -12.745322
   1.46045    -12.737792
   1.42842    -12.735286
   1.42842    -12.735286
   1.39539    -12.738969
   1.36237    -12.749990
   1.32934    -12.768118
   1.29631    -12.793020
   1.26328    -12.824224
   1.23025    -12.861098
   1.19722    -12.902998
   1.16419    -12.949251
   1.13116    -12.999036
   1.09813    -13.051583
   1.06510    -13.106064
   1.03207    -13.161708
   0.99904    -13.217674
   0.96601    -13.217962
   0.93298    -13.162286
   0.89995    -13.108551
   0.86692    -13.057611
   0.83389    -13.098171
   0.80086    -13.152778
   0.80086    -13.152780
   0.75902    -13.227671
   0.71719    -13.307857
   0.67535    -13.391240
   0.63351    -13.472121
   0.59167    -13.519693
   0.59167    -13.519693
   0.55880    -13.486656
   0.52593    -13.449522
   0.49306    -13.407828
   0.46019    -13.361452
   0.42732    -13.310480
   0.39445    -13.255469
   0.36158    -13.197177
   0.32871    -13.136824
   0.29584    -13.075771
   0.26297    -13.015584
   0.23009    -12.957798
   0.19722    -12.903964
   0.16435    -12.855575
   0.13148    -12.813972
   0.09861    -12.780342
   0.06574    -12.755507
   0.03287    -12.740367
   0.00000    -12.735286
 
# Band-Index:   27
   0.00000    -12.735284
   0.03287    -12.735910
   0.06574    -12.737810
   0.09861    -12.740938
   0.13148    -12.745220
   0.16435    -12.750529
   0.19722    -12.756807
   0.23009    -12.763824
   0.26297    -12.771468
   0.29584    -12.779492
   0.32871    -12.787687
   0.36158    -12.795799
   0.39445    -12.803608
   0.42732    -12.810770
   0.46019    -12.817069
   0.49306    -12.822262
   0.52593    -12.826147
   0.55880    -12.828541
   0.59167    -12.829351
   0.59167    -12.829351
   0.63351    -12.835172
   0.67535    -12.852444
   0.71719    -12.880735
   0.75902    -12.919266
   0.80086    -12.966880
   0.80086    -12.966882
   0.83389    -13.010132
   0.86692    -13.047824
   0.89995    -13.002010
   0.93298    -12.960727
   0.96601    -12.947667
   0.99904    -12.941045
   1.03207    -12.928985
   1.06510    -12.912447
   1.09813    -12.892650
   1.13116    -12.870811
   1.16419    -12.848078
   1.19722    -12.825501
   1.23025    -12.804062
   1.26328    -12.784480
   1.29631    -12.767500
   1.32934    -12.753728
   1.36237    -12.743580
   1.39539    -12.737365
   1.42842    -12.735284
   1.42842    -12.735284
   1.46045    -12.737790
   1.49247    -12.745321
   1.52450    -12.757767
   1.55653    -12.774955
   1.58855    -12.796709
   1.62058    -12.822691
   1.65260    -12.852622
   1.68463    -12.886159
   1.71665    -12.922866
   1.74868    -12.962294
   1.78070    -13.003971
   1.81273    -13.047311
   1.84475    -13.091454
   1.87678    -13.134930
   1.90880    -13.173548
   1.94083    -13.192499
   1.94083    -13.192499
   1.97569    -13.183555
   2.01056    -13.162116
   2.04542    -13.135788
   2.08029    -13.108786
   2.11515    -13.083317
   2.15002    -13.060455
   2.18488    -13.040715
   2.21975    -13.024195
   2.25461    -13.010685
   2.28947    -12.999688
   2.32434    -12.990423
   2.35920    -12.981904
   2.35920    -12.981904
   2.39618    -12.970397
   2.43316    -12.943969
   2.47014    -12.913666
   2.50712    -12.885282
   2.54410    -12.861541
   2.58108    -12.843866
   2.61806    -12.833009
   2.65504    -12.829351
 
# Band-Index:   28
   2.65504    -12.829348
   2.61806    -12.833006
   2.58108    -12.843863
   2.54410    -12.861538
   2.50712    -12.885279
   2.47014    -12.913663
   2.43316    -12.943966
   2.39618    -12.970395
   2.35920    -12.981902
   2.35920    -12.981902
   2.32434    -12.972847
   2.28947    -12.962223
   2.25461    -12.949412
   2.21975    -12.934720
   2.18488    -12.919183
   2.15002    -12.904007
   2.11515    -12.890271
   2.08029    -12.878636
   2.04542    -12.869570
   2.01056    -12.863106
   1.97569    -12.859274
   1.94083    -12.858023
   1.94083    -12.858023
   1.90880    -12.856662
   1.87678    -12.852707
   1.84475    -12.846338
   1.81273    -12.837911
   1.78070    -12.827810
   1.74868    -12.816519
   1.71665    -12.804554
   1.68463    -12.792413
   1.65260    -12.780562
   1.62058    -12.769526
   1.58855    -12.759606
   1.55653    -12.751076
   1.52450    -12.744273
   1.49247    -12.739303
   1.46045    -12.736285
   1.42842    -12.735283
   1.42842    -12.735283
   1.39539    -12.735917
   1.36237    -12.737880
   1.32934    -12.741239
   1.29631    -12.746056
   1.26328    -12.752502
   1.23025    -12.760766
   1.19722    -12.771069
   1.16419    -12.783659
   1.13116    -12.798823
   1.09813    -12.816868
   1.06510    -12.838090
   1.03207    -12.862806
   0.99904    -12.891314
   0.96601    -12.923879
   0.93298    -12.948321
   0.89995    -12.942981
   0.86692    -12.932511
   0.83389    -12.918121
   0.80086    -12.901395
   0.80086    -12.901393
   0.75902    -12.879433
   0.71719    -12.859215
   0.67535    -12.843151
   0.63351    -12.832892
   0.59167    -12.829348
   0.59167    -12.829348
   0.55880    -12.828538
   0.52593    -12.826144
   0.49306    -12.822259
   0.46019    -12.817066
   0.42732    -12.810767
   0.39445    -12.803605
   0.36158    -12.795796
   0.32871    -12.787684
   0.29584    -12.779489
   0.26297    -12.771465
   0.23009    -12.763821
   0.19722    -12.756804
   0.16435    -12.750527
   0.13148    -12.745218
   0.09861    -12.740936
   0.06574    -12.737807
   0.03287    -12.735907
   0.00000    -12.735283
 
# Band-Index:   29
   0.00000     -8.537954
   0.03287     -8.539648
   0.06574     -8.544978
   0.09861     -8.553356
   0.13148     -8.564176
   0.16435     -8.576695
   0.19722     -8.590192
   0.23009     -8.605198
   0.26297     -8.621823
   0.29584     -8.637344
   0.32871     -8.651483
   0.36158     -8.663847
   0.39445     -8.674606
   0.42732     -8.683369
   0.46019     -8.690479
   0.49306     -8.695522
   0.52593     -8.698785
   0.55880     -8.700124
   0.59167     -8.699860
   0.59167     -8.699860
   0.63351     -8.702055
   0.67535     -8.707514
   0.71719     -8.713777
   0.75902     -8.719266
   0.80086     -8.723085
   0.80086     -8.723101
   0.83389     -8.724533
   0.86692     -8.724514
   0.89995     -8.722776
   0.93298     -8.719422
   0.96601     -8.714210
   0.99904     -8.707315
   1.03207     -8.698523
   1.06510     -8.687863
   1.09813     -8.675293
   1.13116     -8.661164
   1.16419     -8.645433
   1.19722     -8.628517
   1.23025     -8.610826
   1.26328     -8.592964
   1.29631     -8.575839
   1.32934     -8.560691
   1.36237     -8.548463
   1.39539     -8.540611
   1.42842     -8.537954
   1.42842     -8.537954
   1.46045     -8.540792
   1.49247     -8.548922
   1.52450     -8.561412
   1.55653     -8.576918
   1.58855     -8.594017
   1.62058     -8.611562
   1.65260     -8.628634
   1.68463     -8.644733
   1.71665     -8.658990
   1.74868     -8.671641
   1.78070     -8.682242
   1.81273     -8.691025
   1.84475     -8.697979
   1.87678     -8.702739
   1.90880     -8.705568
   1.94083     -8.706546
   1.94083     -8.706546
   1.97569     -8.706941
   2.01056     -8.708273
   2.04542     -8.710296
   2.08029     -8.712741
   2.11515     -8.715384
   2.15002     -8.717775
   2.18488     -8.719718
   2.21975     -8.720770
   2.25461     -8.720836
   2.28947     -8.719708
   2.32434     -8.717374
   2.35920     -8.713795
   2.35920     -8.713795
   2.39618     -8.713338
   2.43316     -8.712098
   2.47014     -8.710200
   2.50712     -8.707675
   2.54410     -8.705014
   2.58108     -8.702425
   2.61806     -8.700541
   2.65504     -8.699860
 
# Band-Index:   30
   2.65504     -8.699846
   2.61806     -8.700510
   2.58108     -8.702371
   2.54410     -8.704942
   2.50712     -8.707589
   2.47014     -8.710106
   2.43316     -8.711998
   2.39618     -8.713236
   2.35920     -8.713693
   2.35920     -8.713693
   2.32434     -8.708724
   2.28947     -8.702578
   2.25461     -8.695312
   2.21975     -8.687018
   2.18488     -8.677972
   2.15002     -8.668308
   2.11515     -8.658466
   2.08029     -8.648824
   2.04542     -8.640091
   2.01056     -8.632987
   1.97569     -8.628346
   1.94083     -8.626701
   1.94083     -8.626701
   1.90880     -8.625809
   1.87678     -8.623131
   1.84475     -8.618650
   1.81273     -8.612600
   1.78070     -8.604849
   1.74868     -8.595899
   1.71665     -8.585711
   1.68463     -8.574576
   1.65260     -8.562884
   1.62058     -8.551029
   1.58855     -8.542210
   1.55653     -8.540379
   1.52450     -8.539236
   1.49247     -8.538371
   1.46045     -8.537870
   1.42842     -8.537713
   1.42842     -8.537713
   1.39539     -8.538549
   1.36237     -8.540787
   1.32934     -8.544399
   1.29631     -8.549002
   1.26328     -8.554659
   1.23025     -8.564434
   1.19722     -8.577454
   1.16419     -8.590748
   1.13116     -8.603613
   1.09813     -8.615813
   1.06510     -8.627242
   1.03207     -8.637679
   0.99904     -8.647293
   0.96601     -8.655949
   0.93298     -8.663734
   0.89995     -8.670622
   0.86692     -8.676744
   0.83389     -8.682121
   0.80086     -8.686654
   0.80086     -8.686644
   0.75902     -8.691316
   0.71719     -8.695033
   0.67535     -8.697729
   0.63351     -8.699343
   0.59167     -8.699846
   0.59167     -8.699846
   0.55880     -8.697943
   0.52593     -8.694467
   0.49306     -8.689344
   0.46019     -8.682856
   0.42732     -8.675049
   0.39445     -8.665837
   0.36158     -8.655277
   0.32871     -8.643693
   0.29584     -8.631110
   0.26297     -8.617800
   0.23009     -8.604051
   0.19722     -8.588105
   0.16435     -8.571137
   0.13148     -8.555097
   0.09861     -8.544466
   0.06574     -8.540847
   0.03287     -8.538611
   0.00000     -8.537713
 
# Band-Index:   31
   0.00000     -8.537711
   0.03287     -8.538462
   0.06574     -8.540689
   0.09861     -8.544307
   0.13148     -8.549242
   0.16435     -8.554863
   0.19722     -8.561234
   0.23009     -8.567837
   0.26297     -8.574567
   0.29584     -8.581084
   0.32871     -8.587325
   0.36158     -8.593148
   0.39445     -8.598387
   0.42732     -8.602970
   0.46019     -8.606760
   0.49306     -8.609736
   0.52593     -8.611931
   0.55880     -8.613169
   0.59167     -8.613603
   0.59167     -8.613603
   0.63351     -8.613160
   0.67535     -8.612263
   0.71719     -8.610753
   0.75902     -8.608459
   0.80086     -8.605933
   0.80086     -8.605887
   0.83389     -8.603364
   0.86692     -8.600520
   0.89995     -8.597298
   0.93298     -8.593761
   0.96601     -8.589859
   0.99904     -8.585603
   1.03207     -8.581046
   1.06510     -8.576161
   1.09813     -8.573186
   1.13116     -8.571181
   1.16419     -8.567919
   1.19722     -8.563544
   1.23025     -8.558259
   1.26328     -8.550058
   1.29631     -8.538806
   1.32934     -8.536645
   1.36237     -8.537239
   1.39539     -8.537589
   1.42842     -8.537711
   1.42842     -8.537711
   1.46045     -8.537868
   1.49247     -8.538369
   1.52450     -8.539234
   1.55653     -8.540377
   1.58855     -8.542208
   1.62058     -8.544508
   1.65260     -8.547270
   1.68463     -8.550384
   1.71665     -8.553500
   1.74868     -8.556429
   1.78070     -8.559011
   1.81273     -8.561254
   1.84475     -8.562994
   1.87678     -8.564297
   1.90880     -8.565068
   1.94083     -8.565410
   1.94083     -8.565410
   1.97569     -8.567586
   2.01056     -8.571732
   2.04542     -8.575449
   2.08029     -8.578118
   2.11515     -8.579526
   2.15002     -8.579368
   2.18488     -8.577939
   2.21975     -8.575163
   2.25461     -8.571362
   2.28947     -8.566671
   2.32434     -8.561233
   2.35920     -8.555364
   2.35920     -8.555364
   2.39618     -8.560398
   2.43316     -8.570073
   2.47014     -8.580628
   2.50712     -8.590738
   2.54410     -8.599766
   2.58108     -8.607072
   2.61806     -8.611892
   2.65504     -8.613603
 
# Band-Index:   32
   2.65504     -8.613447
   2.61806     -8.611734
   2.58108     -8.606906
   2.54410     -8.599589
   2.50712     -8.590551
   2.47014     -8.580432
   2.43316     -8.569875
   2.39618     -8.560229
   2.35920     -8.555341
   2.35920     -8.555341
   2.32434     -8.549137
   2.28947     -8.546407
   2.25461     -8.551252
   2.21975     -8.556027
   2.18488     -8.560492
   2.15002     -8.564142
   2.11515     -8.567059
   2.08029     -8.568827
   2.04542     -8.569427
   2.01056     -8.568554
   1.97569     -8.566603
   1.94083     -8.565408
   1.94083     -8.565408
   1.90880     -8.565066
   1.87678     -8.564295
   1.84475     -8.562992
   1.81273     -8.561252
   1.78070     -8.559009
   1.74868     -8.556427
   1.71665     -8.553498
   1.68463     -8.550382
   1.65260     -8.547268
   1.62058     -8.544506
   1.58855     -8.539383
   1.55653     -8.530002
   1.52450     -8.526260
   1.49247     -8.522504
   1.46045     -8.519346
   1.42842     -8.517938
   1.42842     -8.517938
   1.39539     -8.520159
   1.36237     -8.524826
   1.32934     -8.530263
   1.29631     -8.536078
   1.26328     -8.542195
   1.23025     -8.548195
   1.19722     -8.554069
   1.16419     -8.559964
   1.13116     -8.565609
   1.09813     -8.570985
   1.06510     -8.573904
   1.03207     -8.573019
   0.99904     -8.570564
   0.96601     -8.566638
   0.93298     -8.561263
   0.89995     -8.554576
   0.86692     -8.546967
   0.83389     -8.543088
   0.80086     -8.554372
   0.80086     -8.554346
   0.75902     -8.569668
   0.71719     -8.585285
   0.67535     -8.599350
   0.63351     -8.609668
   0.59167     -8.613447
   0.59167     -8.613447
   0.55880     -8.613013
   0.52593     -8.611775
   0.49306     -8.609580
   0.46019     -8.606604
   0.42732     -8.602814
   0.39445     -8.598231
   0.36158     -8.592991
   0.32871     -8.587167
   0.29584     -8.580926
   0.26297     -8.574409
   0.23009     -8.567679
   0.19722     -8.561075
   0.16435     -8.554704
   0.13148     -8.549083
   0.09861     -8.540898
   0.06574     -8.529235
   0.03287     -8.521148
   0.00000     -8.517938
 
# Band-Index:   33
   0.00000     -8.517938
   0.03287     -8.517776
   0.06574     -8.517334
   0.09861     -8.516615
   0.13148     -8.515612
   0.16435     -8.514333
   0.19722     -8.513019
   0.23009     -8.511379
   0.26297     -8.509493
   0.29584     -8.507561
   0.32871     -8.505505
   0.36158     -8.503366
   0.39445     -8.501328
   0.42732     -8.499060
   0.46019     -8.496664
   0.49306     -8.494493
   0.52593     -8.492466
   0.55880     -8.490448
   0.59167     -8.490315
   0.59167     -8.490315
   0.63351     -8.493676
   0.67535     -8.500110
   0.71719     -8.508645
   0.75902     -8.518830
   0.80086     -8.529869
   0.80086     -8.529911
   0.83389     -8.538532
   0.86692     -8.533024
   0.89995     -8.524340
   0.93298     -8.517355
   0.96601     -8.517122
   0.99904     -8.519693
   1.03207     -8.522119
   1.06510     -8.524434
   1.09813     -8.526504
   1.13116     -8.528522
   1.16419     -8.530384
   1.19722     -8.531971
   1.23025     -8.533473
   1.26328     -8.534786
   1.29631     -8.535815
   1.32934     -8.529015
   1.36237     -8.522158
   1.39539     -8.518790
   1.42842     -8.517938
   1.42842     -8.517938
   1.46045     -8.519345
   1.49247     -8.522504
   1.52450     -8.526259
   1.55653     -8.530001
   1.58855     -8.533748
   1.62058     -8.536943
   1.65260     -8.539564
   1.68463     -8.541750
   1.71665     -8.543645
   1.74868     -8.545177
   1.78070     -8.546511
   1.81273     -8.547736
   1.84475     -8.548572
   1.87678     -8.549167
   1.90880     -8.549451
   1.94083     -8.549585
   1.94083     -8.549585
   1.97569     -8.547157
   2.01056     -8.541939
   2.04542     -8.536470
   2.08029     -8.531770
   2.11515     -8.528730
   2.15002     -8.527594
   2.18488     -8.528768
   2.21975     -8.531961
   2.25461     -8.536742
   2.28947     -8.542081
   2.32434     -8.540349
   2.35920     -8.535267
   2.35920     -8.535267
   2.39618     -8.530796
   2.43316     -8.522793
   2.47014     -8.514709
   2.50712     -8.507387
   2.54410     -8.501245
   2.58108     -8.496220
   2.61806     -8.492366
   2.65504     -8.490315
 
# Band-Index:   34
   2.65504     -8.490155
   2.61806     -8.492240
   2.58108     -8.496094
   2.54410     -8.501112
   2.50712     -8.507246
   2.47014     -8.514560
   2.43316     -8.522640
   2.39618     -8.530659
   2.35920     -8.535150
   2.35920     -8.535150
   2.32434     -8.530221
   2.28947     -8.525969
   2.25461     -8.522769
   2.21975     -8.520948
   2.18488     -8.520814
   2.15002     -8.522329
   2.11515     -8.525501
   2.08029     -8.529941
   2.04542     -8.535392
   2.01056     -8.541419
   1.97569     -8.546941
   1.94083     -8.549583
   1.94083     -8.549583
   1.90880     -8.549449
   1.87678     -8.549165
   1.84475     -8.548570
   1.81273     -8.547734
   1.78070     -8.546509
   1.74868     -8.545175
   1.71665     -8.543643
   1.68463     -8.541748
   1.65260     -8.539563
   1.62058     -8.536942
   1.58855     -8.533747
   1.55653     -8.529039
   1.52450     -8.520231
   1.49247     -8.513150
   1.46045     -8.508820
   1.42842     -8.507313
   1.42842     -8.507313
   1.39539     -8.508098
   1.36237     -8.509501
   1.32934     -8.510127
   1.29631     -8.509878
   1.26328     -8.509057
   1.23025     -8.507910
   1.19722     -8.506383
   1.16419     -8.504791
   1.13116     -8.503013
   1.09813     -8.502454
   1.06510     -8.503387
   1.03207     -8.505075
   0.99904     -8.507872
   0.96601     -8.511848
   0.93298     -8.514485
   0.89995     -8.511759
   0.86692     -8.508993
   0.83389     -8.506296
   0.80086     -8.503611
   0.80086     -8.503643
   0.75902     -8.500321
   0.71719     -8.497242
   0.67535     -8.494355
   0.63351     -8.491817
   0.59167     -8.490155
   0.59167     -8.490155
   0.55880     -8.490345
   0.52593     -8.490963
   0.49306     -8.492484
   0.46019     -8.494041
   0.42732     -8.495552
   0.39445     -8.496952
   0.36158     -8.498044
   0.32871     -8.499125
   0.29584     -8.500077
   0.26297     -8.500977
   0.23009     -8.501901
   0.19722     -8.503286
   0.16435     -8.504366
   0.13148     -8.505441
   0.09861     -8.506292
   0.06574     -8.506816
   0.03287     -8.507191
   0.00000     -8.507313
 
# Band-Index:   35
   0.00000     -8.507074
   0.03287     -8.507021
   0.06574     -8.506653
   0.09861     -8.506130
   0.13148     -8.505280
   0.16435     -8.504205
   0.19722     -8.503124
   0.23009     -8.501737
   0.26297     -8.500574
   0.29584     -8.499120
   0.32871     -8.497635
   0.36158     -8.496128
   0.39445     -8.494794
   0.42732     -8.493579
   0.46019     -8.492588
   0.49306     -8.491662
   0.52593     -8.490852
   0.55880     -8.490275
   0.59167     -8.488354
   0.59167     -8.488354
   0.63351     -8.488387
   0.67535     -8.488294
   0.71719     -8.488240
   0.75902     -8.488167
   0.80086     -8.488027
   0.80086     -8.488086
   0.83389     -8.487923
   0.86692     -8.488695
   0.89995     -8.490162
   0.93298     -8.491780
   0.96601     -8.493511
   0.99904     -8.495408
   1.03207     -8.497318
   1.06510     -8.499232
   1.09813     -8.501163
   1.13116     -8.502222
   1.16419     -8.502482
   1.19722     -8.502969
   1.23025     -8.503701
   1.26328     -8.504618
   1.29631     -8.505469
   1.32934     -8.506178
   1.36237     -8.506735
   1.39539     -8.507047
   1.42842     -8.507074
   1.42842     -8.507074
   1.46045     -8.505858
   1.49247     -8.503205
   1.52450     -8.500270
   1.55653     -8.497287
   1.58855     -8.494617
   1.62058     -8.492141
   1.65260     -8.489922
   1.68463     -8.488036
   1.71665     -8.486368
   1.74868     -8.484875
   1.78070     -8.483565
   1.81273     -8.482425
   1.84475     -8.481416
   1.87678     -8.480691
   1.90880     -8.480088
   1.94083     -8.479904
   1.94083     -8.479904
   1.97569     -8.480080
   2.01056     -8.481005
   2.04542     -8.482542
   2.08029     -8.484360
   2.11515     -8.486372
   2.15002     -8.488057
   2.18488     -8.489116
   2.21975     -8.489372
   2.25461     -8.489090
   2.28947     -8.488366
   2.32434     -8.487543
   2.35920     -8.486740
   2.35920     -8.486740
   2.39618     -8.486800
   2.43316     -8.486952
   2.47014     -8.487224
   2.50712     -8.487464
   2.54410     -8.487778
   2.58108     -8.487970
   2.61806     -8.488119
   2.65504     -8.488354
 
# Band-Index:   36
   2.65504     -8.488349
   2.61806     -8.488105
   2.58108     -8.487958
   2.54410     -8.487766
   2.50712     -8.487451
   2.47014     -8.487209
   2.43316     -8.486938
   2.39618     -8.486786
   2.35920     -8.486726
   2.35920     -8.486726
   2.32434     -8.485737
   2.28947     -8.485178
   2.25461     -8.485503
   2.21975     -8.485391
   2.18488     -8.484818
   2.15002     -8.483840
   2.11515     -8.482745
   2.08029     -8.481633
   2.04542     -8.480810
   2.01056     -8.480230
   1.97569     -8.479868
   1.94083     -8.479903
   1.94083     -8.479903
   1.90880     -8.480088
   1.87678     -8.480690
   1.84475     -8.481415
   1.81273     -8.482424
   1.78070     -8.483565
   1.74868     -8.484874
   1.71665     -8.486368
   1.68463     -8.488035
   1.65260     -8.489921
   1.62058     -8.492141
   1.58855     -8.494616
   1.55653     -8.497285
   1.52450     -8.500269
   1.49247     -8.503203
   1.46045     -8.505856
   1.42842     -8.507072
   1.42842     -8.507072
   1.39539     -8.505329
   1.36237     -8.501909
   1.32934     -8.498420
   1.29631     -8.495254
   1.26328     -8.492743
   1.23025     -8.490695
   1.19722     -8.489140
   1.16419     -8.488018
   1.13116     -8.487269
   1.09813     -8.486833
   1.06510     -8.486643
   1.03207     -8.486654
   0.99904     -8.486808
   0.96601     -8.487017
   0.93298     -8.487314
   0.89995     -8.487514
   0.86692     -8.487740
   0.83389     -8.487603
   0.80086     -8.486529
   0.80086     -8.486598
   0.75902     -8.485983
   0.71719     -8.486847
   0.67535     -8.487335
   0.63351     -8.487571
   0.59167     -8.488349
   0.59167     -8.488349
   0.55880     -8.489156
   0.52593     -8.490802
   0.49306     -8.491502
   0.46019     -8.492427
   0.42732     -8.493419
   0.39445     -8.494634
   0.36158     -8.495967
   0.32871     -8.497475
   0.29584     -8.498960
   0.26297     -8.500415
   0.23009     -8.501685
   0.19722     -8.502244
   0.16435     -8.502735
   0.13148     -8.503247
   0.09861     -8.503876
   0.06574     -8.504884
   0.03287     -8.506226
   0.00000     -8.507072
 
# Band-Index:   37
   0.00000     -8.470632
   0.03287     -8.470767
   0.06574     -8.470932
   0.09861     -8.471225
   0.13148     -8.471627
   0.16435     -8.472055
   0.19722     -8.472659
   0.23009     -8.473316
   0.26297     -8.474102
   0.29584     -8.475016
   0.32871     -8.476057
   0.36158     -8.477198
   0.39445     -8.478452
   0.42732     -8.479776
   0.46019     -8.481341
   0.49306     -8.482922
   0.52593     -8.484670
   0.55880     -8.486473
   0.59167     -8.487662
   0.59167     -8.487662
   0.63351     -8.487046
   0.67535     -8.485280
   0.71719     -8.485038
   0.75902     -8.485500
   0.80086     -8.485179
   0.80086     -8.485120
   0.83389     -8.484301
   0.86692     -8.483415
   0.89995     -8.482369
   0.93298     -8.481335
   0.96601     -8.480194
   0.99904     -8.479024
   1.03207     -8.477851
   1.06510     -8.476704
   1.09813     -8.475663
   1.13116     -8.474671
   1.16419     -8.473844
   1.19722     -8.473084
   1.23025     -8.472481
   1.26328     -8.471985
   1.29631     -8.471546
   1.32934     -8.471194
   1.36237     -8.470943
   1.39539     -8.470769
   1.42842     -8.470632
   1.42842     -8.470632
   1.46045     -8.470724
   1.49247     -8.470855
   1.52450     -8.471140
   1.55653     -8.471362
   1.58855     -8.471687
   1.62058     -8.472105
   1.65260     -8.472638
   1.68463     -8.473039
   1.71665     -8.473706
   1.74868     -8.474188
   1.78070     -8.474734
   1.81273     -8.475424
   1.84475     -8.475999
   1.87678     -8.476570
   1.90880     -8.476973
   1.94083     -8.477156
   1.94083     -8.477156
   1.97569     -8.477318
   2.01056     -8.477594
   2.04542     -8.478102
   2.08029     -8.478795
   2.11515     -8.479806
   2.15002     -8.480738
   2.18488     -8.481760
   2.21975     -8.482685
   2.25461     -8.483745
   2.28947     -8.484679
   2.32434     -8.484415
   2.35920     -8.483735
   2.35920     -8.483735
   2.39618     -8.483668
   2.43316     -8.483646
   2.47014     -8.483787
   2.50712     -8.483954
   2.54410     -8.484528
   2.58108     -8.485369
   2.61806     -8.486629
   2.65504     -8.487662
 
# Band-Index:   38
   2.65504     -8.487652
   2.61806     -8.486601
   2.58108     -8.485336
   2.54410     -8.484499
   2.50712     -8.483928
   2.47014     -8.483763
   2.43316     -8.483622
   2.39618     -8.483645
   2.35920     -8.483711
   2.35920     -8.483711
   2.32434     -8.482773
   2.28947     -8.481892
   2.25461     -8.481068
   2.21975     -8.480240
   2.18488     -8.479611
   2.15002     -8.478968
   2.11515     -8.478475
   2.08029     -8.477950
   2.04542     -8.477608
   2.01056     -8.477360
   1.97569     -8.477207
   1.94083     -8.477156
   1.94083     -8.477156
   1.90880     -8.476972
   1.87678     -8.476569
   1.84475     -8.475999
   1.81273     -8.475423
   1.78070     -8.474734
   1.74868     -8.474188
   1.71665     -8.473705
   1.68463     -8.473038
   1.65260     -8.472637
   1.62058     -8.472105
   1.58855     -8.471687
   1.55653     -8.471362
   1.52450     -8.471140
   1.49247     -8.470854
   1.46045     -8.470723
   1.42842     -8.470632
   1.42842     -8.470632
   1.39539     -8.470763
   1.36237     -8.470913
   1.32934     -8.471112
   1.29631     -8.471376
   1.26328     -8.471701
   1.23025     -8.471986
   1.19722     -8.472567
   1.16419     -8.473115
   1.13116     -8.473723
   1.09813     -8.474389
   1.06510     -8.475044
   1.03207     -8.475800
   0.99904     -8.476489
   0.96601     -8.477224
   0.93298     -8.477939
   0.89995     -8.478612
   0.86692     -8.479486
   0.83389     -8.480301
   0.80086     -8.481187
   0.80086     -8.481143
   0.75902     -8.482321
   0.71719     -8.483706
   0.67535     -8.485212
   0.63351     -8.486211
   0.59167     -8.487652
   0.59167     -8.487652
   0.55880     -8.485847
   0.52593     -8.484329
   0.49306     -8.482767
   0.46019     -8.481263
   0.42732     -8.479776
   0.39445     -8.478416
   0.36158     -8.477040
   0.32871     -8.475902
   0.29584     -8.474862
   0.26297     -8.473964
   0.23009     -8.473140
   0.19722     -8.472413
   0.16435     -8.471582
   0.13148     -8.471289
   0.09861     -8.471073
   0.06574     -8.470852
   0.03287     -8.470727
   0.00000     -8.470632
 
# Band-Index:   39
   0.00000     -7.438329
   0.03287     -7.430691
   0.06574     -7.407812
   0.09861     -7.370350
   0.13148     -7.319103
   0.16435     -7.255189
   0.19722     -7.179714
   0.23009     -7.093802
   0.26297     -6.998715
   0.29584     -6.895693
   0.32871     -6.786242
   0.36158     -6.672125
   0.39445     -6.555320
   0.42732     -6.438316
   0.46019     -6.324279
   0.49306     -6.217149
   0.52593     -6.130892
   0.55880     -6.112695
   0.59167     -6.106520
   0.59167     -6.106520
   0.63351     -6.183737
   0.67535     -6.289502
   0.71719     -6.386385
   0.75902     -6.471974
   0.80086     -6.547259
   0.80086     -6.547259
   0.83389     -6.600867
   0.86692     -6.650706
   0.89995     -6.698265
   0.93298     -6.744891
   0.96601     -6.791474
   0.99904     -6.838781
   1.03207     -6.887498
   1.06510     -6.937645
   1.09813     -6.989642
   1.13116     -7.043828
   1.16419     -7.099983
   1.19722     -7.157816
   1.23025     -7.216316
   1.26328     -7.273463
   1.29631     -7.326593
   1.32934     -7.372554
   1.36237     -7.408128
   1.39539     -7.430671
   1.42842     -7.438329
   1.42842     -7.438329
   1.46045     -7.431106
   1.49247     -7.409999
   1.52450     -7.376952
   1.55653     -7.334400
   1.58855     -7.285105
   1.62058     -7.231451
   1.65260     -7.175302
   1.68463     -7.118140
   1.71665     -7.061000
   1.74868     -7.005341
   1.78070     -6.952496
   1.81273     -6.904247
   1.84475     -6.862890
   1.87678     -6.830791
   1.90880     -6.810374
   1.94083     -6.803381
   1.94083     -6.803381
   1.97569     -6.802392
   2.01056     -6.798419
   2.04542     -6.789202
   2.08029     -6.772524
   2.11515     -6.747378
   2.15002     -6.713496
   2.18488     -6.672002
   2.21975     -6.624702
   2.25461     -6.574233
   2.28947     -6.523447
   2.32434     -6.475401
   2.35920     -6.432858
   2.35920     -6.432858
   2.39618     -6.426079
   2.43316     -6.406138
   2.47014     -6.373432
   2.50712     -6.328901
   2.54410     -6.273994
   2.58108     -6.211037
   2.61806     -6.145910
   2.65504     -6.106520
 
# Band-Index:   40
   2.65504     -6.106516
   2.61806     -6.145905
   2.58108     -6.211030
   2.54410     -6.273987
   2.50712     -6.328895
   2.47014     -6.373427
   2.43316     -6.406132
   2.39618     -6.426073
   2.35920     -6.432853
   2.35920     -6.432853
   2.32434     -6.397641
   2.28947     -6.371031
   2.25461     -6.353227
   2.21975     -6.343536
   2.18488     -6.341119
   2.15002     -6.344466
   2.11515     -6.352366
   2.08029     -6.363038
   2.04542     -6.374743
   2.01056     -6.385258
   1.97569     -6.392504
   1.94083     -6.395102
   1.94083     -6.395102
   1.90880     -6.400669
   1.87678     -6.416925
   1.84475     -6.442527
   1.81273     -6.475712
   1.78070     -6.514252
   1.74868     -6.556047
   1.71665     -6.599098
   1.68463     -6.641724
   1.65260     -6.682349
   1.62058     -6.719829
   1.58855     -6.753060
   1.55653     -6.781265
   1.52450     -6.803830
   1.49247     -6.820280
   1.46045     -6.830294
   1.42842     -6.833668
   1.42842     -6.833668
   1.39539     -6.830830
   1.36237     -6.822394
   1.32934     -6.808458
   1.29631     -6.789185
   1.26328     -6.764863
   1.23025     -6.735804
   1.19722     -6.702239
   1.16419     -6.664801
   1.13116     -6.623990
   1.09813     -6.580388
   1.06510     -6.534878
   1.03207     -6.488087
   0.99904     -6.440802
   0.96601     -6.394084
   0.93298     -6.348840
   0.89995     -6.305815
   0.86692     -6.266006
   0.83389     -6.229932
   0.80086     -6.198111
   0.80086     -6.198112
   0.75902     -6.164581
   0.71719     -6.138911
   0.67535     -6.120774
   0.63351     -6.110038
   0.59167     -6.106516
   0.59167     -6.106516
   0.55880     -6.112691
   0.52593     -6.130888
   0.49306     -6.160548
   0.46019     -6.200378
   0.42732     -6.248693
   0.39445     -6.303883
   0.36158     -6.363734
   0.32871     -6.426322
   0.29584     -6.489631
   0.26297     -6.551788
   0.23009     -6.610896
   0.19722     -6.665532
   0.16435     -6.714137
   0.13148     -6.757518
   0.09861     -6.791863
   0.06574     -6.815552
   0.03287     -6.829232
   0.00000     -6.833668
 
# Band-Index:   41
   0.00000     -6.833667
   0.03287     -6.828627
   0.06574     -6.813671
   0.09861     -6.789174
   0.13148     -6.755758
   0.16435     -6.714136
   0.19722     -6.665532
   0.23009     -6.610896
   0.26297     -6.551787
   0.29584     -6.489629
   0.32871     -6.426320
   0.36158     -6.363732
   0.39445     -6.303880
   0.42732     -6.248690
   0.46019     -6.200374
   0.49306     -6.160545
   0.52593     -6.121545
   0.55880     -6.042833
   0.59167     -5.986125
   0.59167     -5.986125
   0.63351     -5.984905
   0.67535     -5.981916
   0.71719     -5.979054
   0.75902     -5.978877
   0.80086     -5.984607
   0.80086     -5.984610
   0.83389     -5.995021
   0.86692     -6.011819
   0.89995     -6.036015
   0.93298     -6.068239
   0.96601     -6.108636
   0.99904     -6.157234
   1.03207     -6.213116
   1.06510     -6.275208
   1.09813     -6.342014
   1.13116     -6.411795
   1.16419     -6.482557
   1.19722     -6.557138
   1.23025     -6.634375
   1.26328     -6.698232
   1.29631     -6.748795
   1.32934     -6.786814
   1.36237     -6.813078
   1.39539     -6.828552
   1.42842     -6.833667
   1.42842     -6.833667
   1.46045     -6.830293
   1.49247     -6.820279
   1.52450     -6.803829
   1.55653     -6.781264
   1.58855     -6.753060
   1.62058     -6.719828
   1.65260     -6.682348
   1.68463     -6.641723
   1.71665     -6.599097
   1.74868     -6.556046
   1.78070     -6.514251
   1.81273     -6.475711
   1.84475     -6.442526
   1.87678     -6.416924
   1.90880     -6.400668
   1.94083     -6.395102
   1.94083     -6.395102
   1.97569     -6.383640
   2.01056     -6.350636
   2.04542     -6.299512
   2.08029     -6.234229
   2.11515     -6.158820
   2.15002     -6.076451
   2.18488     -5.990845
   2.21975     -5.904619
   2.25461     -5.820928
   2.28947     -5.743407
   2.32434     -5.676857
   2.35920     -5.628900
   2.35920     -5.628900
   2.39618     -5.635091
   2.43316     -5.654684
   2.47014     -5.688735
   2.50712     -5.737795
   2.54410     -5.800453
   2.58108     -5.872196
   2.61806     -5.944216
   2.65504     -5.986125
 
# Band-Index:   42
   2.65504     -5.986119
   2.61806     -5.944207
   2.58108     -5.872187
   2.54410     -5.800443
   2.50712     -5.737784
   2.47014     -5.688724
   2.43316     -5.654673
   2.39618     -5.635079
   2.35920     -5.628889
   2.35920     -5.628889
   2.32434     -5.609743
   2.28947     -5.627894
   2.25461     -5.679287
   2.21975     -5.749851
   2.18488     -5.826378
   2.15002     -5.899658
   2.11515     -5.964531
   2.08029     -6.017829
   2.04542     -6.058619
   2.01056     -6.086847
   1.97569     -6.103311
   1.94083     -6.108712
   1.94083     -6.108712
   1.90880     -6.114094
   1.87678     -6.130787
   1.84475     -6.159393
   1.81273     -6.200032
   1.78070     -6.251904
   1.74868     -6.313584
   1.71665     -6.382307
   1.68463     -6.455153
   1.65260     -6.528790
   1.62058     -6.600387
   1.58855     -6.666595
   1.55653     -6.724438
   1.52450     -6.771423
   1.49247     -6.805809
   1.46045     -6.826669
   1.42842     -6.833664
   1.42842     -6.833664
   1.39539     -6.826991
   1.36237     -6.807245
   1.32934     -6.775119
   1.29631     -6.731774
   1.26328     -6.678900
   1.23025     -6.618304
   1.19722     -6.552117
   1.16419     -6.467319
   1.13116     -6.366698
   1.09813     -6.258562
   1.06510     -6.146578
   1.03207     -6.035337
   0.99904     -5.929738
   0.96601     -5.834370
   0.93298     -5.753213
   0.89995     -5.687799
   0.86692     -5.638300
   0.83389     -5.603811
   0.80086     -5.586743
   0.80086     -5.586742
   0.75902     -5.599109
   0.71719     -5.664217
   0.67535     -5.774462
   0.63351     -5.900381
   0.59167     -5.986119
   0.59167     -5.986119
   0.55880     -5.955421
   0.52593     -5.952737
   0.49306     -5.977283
   0.46019     -6.026277
   0.42732     -6.094466
   0.39445     -6.175719
   0.36158     -6.263395
   0.32871     -6.352310
   0.29584     -6.438476
   0.26297     -6.519199
   0.23009     -6.592631
   0.19722     -6.657376
   0.16435     -6.712578
   0.13148     -6.755756
   0.09861     -6.789172
   0.06574     -6.813669
   0.03287     -6.828625
   0.00000     -6.833664
 
# Band-Index:   43
   0.00000     -6.720523
   0.03287     -6.711468
   0.06574     -6.685177
   0.09861     -6.643653
   0.13148     -6.589144
   0.16435     -6.523942
   0.19722     -6.450236
   0.23009     -6.369807
   0.26297     -6.284422
   0.29584     -6.195313
   0.32871     -6.103540
   0.36158     -6.009132
   0.39445     -5.911787
   0.42732     -5.809738
   0.46019     -5.701306
   0.49306     -5.584951
   0.52593     -5.460932
   0.55880     -5.330553
   0.59167     -5.195640
   0.59167     -5.195640
   0.63351     -5.194499
   0.67535     -5.185397
   0.71719     -5.149138
   0.75902     -5.058117
   0.80086     -4.993365
   0.80086     -4.993363
   0.83389     -4.996108
   0.86692     -5.049059
   0.89995     -5.142413
   0.93298     -5.259653
   0.96601     -5.389960
   0.99904     -5.527118
   1.03207     -5.666806
   1.06510     -5.805931
   1.09813     -5.941901
   1.13116     -6.072340
   1.16419     -6.195269
   1.19722     -6.308883
   1.23025     -6.411575
   1.26328     -6.501848
   1.29631     -6.578163
   1.32934     -6.639288
   1.36237     -6.684019
   1.39539     -6.711324
   1.42842     -6.720523
   1.42842     -6.720523
   1.46045     -6.711855
   1.49247     -6.685901
   1.52450     -6.642617
   1.55653     -6.581741
   1.58855     -6.502896
   1.62058     -6.405644
   1.65260     -6.289846
   1.68463     -6.156091
   1.71665     -6.005509
   1.74868     -5.839435
   1.78070     -5.659500
   1.81273     -5.467492
   1.84475     -5.264969
   1.87678     -5.053628
   1.90880     -4.838578
   1.94083     -4.816132
   1.94083     -4.816132
   1.97569     -4.810305
   2.01056     -4.792912
   2.04542     -4.764188
   2.08029     -4.765455
   2.11515     -4.797045
   2.15002     -4.840530
   2.18488     -4.890409
   2.21975     -4.940550
   2.25461     -4.981892
   2.28947     -5.001583
   2.32434     -4.987449
   2.35920     -4.938471
   2.35920     -4.938471
   2.39618     -4.957597
   2.43316     -5.004495
   2.47014     -5.060014
   2.50712     -5.110405
   2.54410     -5.149496
   2.58108     -5.175906
   2.61806     -5.190861
   2.65504     -5.195640
 
# Band-Index:   44
   2.65504     -5.195627
   2.61806     -5.190848
   2.58108     -5.175893
   2.54410     -5.149485
   2.50712     -5.110396
   2.47014     -5.060007
   2.43316     -5.004491
   2.39618     -4.957594
   2.35920     -4.938467
   2.35920     -4.938467
   2.32434     -4.867218
   2.28947     -4.789646
   2.25461     -4.717932
   2.21975     -4.658636
   2.18488     -4.613178
   2.15002     -4.613595
   2.11515     -4.674002
   2.08029     -4.724387
   2.04542     -4.759992
   2.01056     -4.785037
   1.97569     -4.807816
   1.94083     -4.816131
   1.94083     -4.816131
   1.90880     -4.815530
   1.87678     -4.815001
   1.84475     -4.817019
   1.81273     -4.824824
   1.78070     -4.840905
   1.74868     -4.866558
   1.71665     -4.900774
   1.68463     -4.941055
   1.65260     -4.984462
   1.62058     -5.027917
   1.58855     -5.068682
   1.55653     -5.104765
   1.52450     -5.134444
   1.49247     -5.156389
   1.46045     -5.169875
   1.42842     -5.174436
   1.42842     -5.174436
   1.39539     -5.170340
   1.36237     -5.158150
   1.32934     -5.137989
   1.29631     -5.110185
   1.26328     -5.075140
   1.23025     -5.033227
   1.19722     -4.985152
   1.16419     -4.931490
   1.13116     -4.872574
   1.09813     -4.808719
   1.06510     -4.739590
   1.03207     -4.675405
   0.99904     -4.633013
   0.96601     -4.593762
   0.93298     -4.556447
   0.89995     -4.519503
   0.86692     -4.587455
   0.83389     -4.754440
   0.80086     -4.905942
   0.80086     -4.905943
   0.75902     -5.039052
   0.71719     -5.099422
   0.67535     -5.151005
   0.63351     -5.184251
   0.59167     -5.195627
   0.59167     -5.195627
   0.55880     -5.057934
   0.52593     -4.919049
   0.49306     -4.780515
   0.46019     -4.643559
   0.42732     -4.639622
   0.39445     -4.715771
   0.36158     -4.786712
   0.32871     -4.852418
   0.29584     -4.912374
   0.26297     -4.966575
   0.23009     -5.014737
   0.19722     -5.056832
   0.16435     -5.092527
   0.13148     -5.121940
   0.09861     -5.144884
   0.06574     -5.161273
   0.03287     -5.171132
   0.00000     -5.174436
 
# Band-Index:   45
   0.00000     -5.174435
   0.03287     -5.168103
   0.06574     -5.149144
   0.09861     -5.117542
   0.13148     -5.073229
   0.16435     -5.016407
   0.19722     -4.947109
   0.23009     -4.865622
   0.26297     -4.771969
   0.29584     -4.666921
   0.32871     -4.551017
   0.36158     -4.424940
   0.39445     -4.378632
   0.42732     -4.509238
   0.46019     -4.558919
   0.49306     -4.473558
   0.52593     -4.384225
   0.55880     -4.291145
   0.59167     -4.194915
   0.59167     -4.194915
   0.63351     -4.207411
   0.67535     -4.241623
   0.71719     -4.290117
   0.75902     -4.344881
   0.80086     -4.400278
   0.80086     -4.400278
   0.83389     -4.442183
   0.86692     -4.481836
   0.89995     -4.435366
   0.93298     -4.423880
   0.96601     -4.497543
   0.99904     -4.584148
   1.03207     -4.664914
   1.06510     -4.721926
   1.09813     -4.772691
   1.13116     -4.826913
   1.16419     -4.883202
   1.19722     -4.939677
   1.23025     -4.994199
   1.26328     -5.044708
   1.29631     -5.088940
   1.32934     -5.125276
   1.36237     -5.152239
   1.39539     -5.168824
   1.42842     -5.174435
   1.42842     -5.174435
   1.46045     -5.169874
   1.49247     -5.156388
   1.52450     -5.134444
   1.55653     -5.104765
   1.58855     -5.068682
   1.62058     -5.027916
   1.65260     -4.984462
   1.68463     -4.941054
   1.71665     -4.900773
   1.74868     -4.866558
   1.78070     -4.840905
   1.81273     -4.824824
   1.84475     -4.817018
   1.87678     -4.815000
   1.90880     -4.815530
   1.94083     -4.677740
   1.94083     -4.677740
   1.97569     -4.680565
   2.01056     -4.687876
   2.04542     -4.688791
   2.08029     -4.652735
   2.11515     -4.587046
   2.15002     -4.578999
   2.18488     -4.543577
   2.21975     -4.465828
   2.25461     -4.383729
   2.28947     -4.382588
   2.32434     -4.377395
   2.35920     -4.362141
   2.35920     -4.362141
   2.39618     -4.337544
   2.43316     -4.274631
   2.47014     -4.199383
   2.50712     -4.182363
   2.54410     -4.188977
   2.58108     -4.193035
   2.61806     -4.194593
   2.65504     -4.194915
 
# Band-Index:   46
   2.65504     -4.194901
   2.61806     -4.194580
   2.58108     -4.193021
   2.54410     -4.188964
   2.50712     -4.182351
   2.47014     -4.199381
   2.43316     -4.274620
   2.39618     -4.337531
   2.35920     -4.362127
   2.35920     -4.362127
   2.32434     -4.340422
   2.28947     -4.320658
   2.25461     -4.373067
   2.21975     -4.358951
   2.18488     -4.427899
   2.15002     -4.508760
   2.11515     -4.554594
   2.08029     -4.537248
   2.04542     -4.525683
   2.01056     -4.518529
   1.97569     -4.514716
   1.94083     -4.513550
   1.94083     -4.513550
   1.90880     -4.347821
   1.87678     -4.208796
   1.84475     -4.190159
   1.81273     -4.161356
   1.78070     -4.118834
   1.74868     -4.062658
   1.71665     -3.994817
   1.68463     -3.918405
   1.65260     -3.837404
   1.62058     -3.755687
   1.58855     -3.677422
   1.55653     -3.606510
   1.52450     -3.546745
   1.49247     -3.501431
   1.46045     -3.473183
   1.42842     -3.463598
   1.42842     -3.463598
   1.39539     -3.473241
   1.36237     -3.502414
   1.32934     -3.551637
   1.29631     -3.620039
   1.26328     -3.705763
   1.23025     -3.805299
   1.19722     -3.913539
   1.16419     -4.024605
   1.13116     -4.132621
   1.09813     -4.232014
   1.06510     -4.317201
   1.03207     -4.382683
   0.99904     -4.423696
   0.96601     -4.436844
   0.93298     -4.409593
   0.89995     -4.352537
   0.86692     -4.382392
   0.83389     -4.407259
   0.80086     -4.378834
   0.80086     -4.378832
   0.75902     -4.277685
   0.71719     -4.139094
   0.67535     -4.141446
   0.63351     -4.181497
   0.59167     -4.194901
   0.59167     -4.194901
   0.55880     -4.096052
   0.52593     -3.995100
   0.49306     -3.892867
   0.46019     -3.994326
   0.42732     -4.145628
   0.39445     -4.289533
   0.36158     -4.252528
   0.32871     -4.132111
   0.29584     -4.018176
   0.26297     -3.911783
   0.23009     -3.813628
   0.19722     -3.725792
   0.16435     -3.648495
   0.13148     -3.583643
   0.09861     -3.531763
   0.06574     -3.494131
   0.03287     -3.471256
   0.00000     -3.463598
 
# Band-Index:   47
   0.00000     -3.463597
   0.03287     -3.464838
   0.06574     -3.468838
   0.09861     -3.476295
   0.13148     -3.488132
   0.16435     -3.504520
   0.19722     -3.525973
   0.23009     -3.550888
   0.26297     -3.578161
   0.29584     -3.604747
   0.32871     -3.628343
   0.36158     -3.646219
   0.39445     -3.656615
   0.42732     -3.687218
   0.46019     -3.790012
   0.49306     -3.836250
   0.52593     -3.673116
   0.55880     -3.709792
   0.59167     -3.720944
   0.59167     -3.720944
   0.63351     -3.828836
   0.67535     -3.985059
   0.71719     -4.075997
   0.75902     -3.986701
   0.80086     -4.083314
   0.80086     -4.083314
   0.83389     -4.183814
   0.86692     -4.271936
   0.89995     -4.313576
   0.93298     -4.179754
   0.96601     -4.012238
   0.99904     -3.885741
   1.03207     -3.765133
   1.06510     -3.664347
   1.09813     -3.591499
   1.13116     -3.546472
   1.16419     -3.521128
   1.19722     -3.506532
   1.23025     -3.496787
   1.26328     -3.488435
   1.29631     -3.480715
   1.32934     -3.473927
   1.36237     -3.468364
   1.39539     -3.464815
   1.42842     -3.463597
   1.42842     -3.463597
   1.46045     -3.463605
   1.49247     -3.464009
   1.52450     -3.465865
   1.55653     -3.470934
   1.58855     -3.481016
   1.62058     -3.497858
   1.65260     -3.521130
   1.68463     -3.547712
   1.71665     -3.572378
   1.74868     -3.588573
   1.78070     -3.591492
   1.81273     -3.622731
   1.84475     -3.868033
   1.87678     -4.107217
   1.90880     -4.208543
   1.94083     -4.211700
   1.94083     -4.211700
   1.97569     -4.215312
   2.01056     -4.225714
   2.04542     -4.241887
   2.08029     -4.262248
   2.11515     -4.285617
   2.15002     -4.310550
   2.18488     -4.335938
   2.21975     -4.357652
   2.25461     -4.319618
   2.28947     -4.290080
   2.32434     -4.194898
   2.35920     -4.095463
   2.35920     -4.095463
   2.39618     -4.107143
   2.43316     -4.129677
   2.47014     -4.140301
   2.50712     -4.075470
   2.54410     -3.976281
   2.58108     -3.874099
   2.61806     -3.777373
   2.65504     -3.720944
 
# Band-Index:   48
   2.65504     -3.720937
   2.61806     -3.777367
   2.58108     -3.874093
   2.54410     -3.976275
   2.50712     -4.075463
   2.47014     -4.140295
   2.43316     -4.129666
   2.39618     -4.107132
   2.35920     -4.095452
   2.35920     -4.095452
   2.32434     -3.995477
   2.28947     -4.018394
   2.25461     -4.062483
   2.21975     -4.065885
   2.18488     -4.029313
   2.15002     -3.968076
   2.11515     -3.890687
   2.08029     -3.800811
   2.04542     -3.702924
   2.01056     -3.602176
   1.97569     -3.511294
   1.94083     -3.467479
   1.94083     -3.467479
   1.90880     -3.481423
   1.87678     -3.514501
   1.84475     -3.550722
   1.81273     -3.578478
   1.78070     -3.591491
   1.74868     -3.588572
   1.71665     -3.572377
   1.68463     -3.547711
   1.65260     -3.521129
   1.62058     -3.497857
   1.58855     -3.481015
   1.55653     -3.470933
   1.52450     -3.465864
   1.49247     -3.464009
   1.46045     -3.463604
   1.42842     -3.463588
   1.42842     -3.463588
   1.39539     -3.462955
   1.36237     -3.461158
   1.32934     -3.458463
   1.29631     -3.455284
   1.26328     -3.452210
   1.23025     -3.449802
   1.19722     -3.448439
   1.16419     -3.448978
   1.13116     -3.451595
   1.09813     -3.456577
   1.06510     -3.464128
   1.03207     -3.586574
   0.99904     -3.783307
   0.96601     -3.985121
   0.93298     -4.128846
   0.89995     -4.191824
   0.86692     -4.132350
   0.83389     -4.023907
   0.80086     -3.906218
   0.80086     -3.906217
   0.75902     -3.956000
   0.71719     -3.847389
   0.67535     -3.772200
   0.63351     -3.732660
   0.59167     -3.720937
   0.59167     -3.720937
   0.55880     -3.695561
   0.52593     -3.661014
   0.49306     -3.634903
   0.46019     -3.650416
   0.42732     -3.658022
   0.39445     -3.656610
   0.36158     -3.646214
   0.32871     -3.628339
   0.29584     -3.604742
   0.26297     -3.578156
   0.23009     -3.550883
   0.19722     -3.525968
   0.16435     -3.504515
   0.13148     -3.488127
   0.09861     -3.476290
   0.06574     -3.468833
   0.03287     -3.464833
   0.00000     -3.463588
 
# Band-Index:   49
   0.00000     -2.831973
   0.03287     -2.838521
   0.06574     -2.858055
   0.09861     -2.890124
   0.13148     -2.934188
   0.16435     -2.989049
   0.19722     -3.054189
   0.23009     -3.127599
   0.26297     -3.209068
   0.29584     -3.296560
   0.32871     -3.389230
   0.36158     -3.485895
   0.39445     -3.585600
   0.42732     -3.658018
   0.46019     -3.650412
   0.49306     -3.634899
   0.52593     -3.636000
   0.55880     -3.598443
   0.59167     -3.591552
   0.59167     -3.591552
   0.63351     -3.589777
   0.67535     -3.584459
   0.71719     -3.626211
   0.75902     -3.758644
   0.80086     -3.875938
   0.80086     -3.875936
   0.83389     -3.776063
   0.86692     -3.669914
   0.89995     -3.573493
   0.93298     -3.523922
   0.96601     -3.501718
   0.99904     -3.486415
   1.03207     -3.474039
   1.06510     -3.415280
   1.09813     -3.294339
   1.13116     -3.216508
   1.16419     -3.157300
   1.19722     -3.104429
   1.23025     -3.053623
   1.26328     -3.003067
   1.29631     -2.953351
   1.32934     -2.906830
   1.36237     -2.867611
   1.39539     -2.841285
   1.42842     -2.831973
   1.42842     -2.831973
   1.46045     -2.838726
   1.49247     -2.857995
   1.52450     -2.886768
   1.55653     -2.920547
   1.58855     -2.953540
   1.62058     -2.980490
   1.65260     -2.997689
   1.68463     -3.004487
   1.71665     -3.003230
   1.74868     -3.128334
   1.78070     -3.375169
   1.81273     -3.578477
   1.84475     -3.550721
   1.87678     -3.514500
   1.90880     -3.481422
   1.94083     -3.467478
   1.94083     -3.467478
   1.97569     -3.473071
   2.01056     -3.489366
   2.04542     -3.515287
   2.08029     -3.549375
   2.11515     -3.590235
   2.15002     -3.635215
   2.18488     -3.681436
   2.21975     -3.725580
   2.25461     -3.767403
   2.28947     -3.879327
   2.32434     -3.950259
   2.35920     -3.896659
   2.35920     -3.896659
   2.39618     -3.872577
   2.43316     -3.813479
   2.47014     -3.736644
   2.50712     -3.653517
   2.54410     -3.576956
   2.58108     -3.531170
   2.61806     -3.551900
   2.65504     -3.591552
 
# Band-Index:   50
   2.65504     -3.591549
   2.61806     -3.551897
   2.58108     -3.531165
   2.54410     -3.576951
   2.50712     -3.653511
   2.47014     -3.736638
   2.43316     -3.813473
   2.39618     -3.872571
   2.35920     -3.896654
   2.35920     -3.896654
   2.32434     -3.847630
   2.28947     -3.805766
   2.25461     -3.766579
   2.21975     -3.652239
   2.18488     -3.537601
   2.15002     -3.427393
   2.11515     -3.326827
   2.08029     -3.240902
   2.04542     -3.174914
   2.01056     -3.132895
   1.97569     -3.143489
   1.94083     -3.179230
   1.94083     -3.179230
   1.90880     -3.159561
   1.87678     -3.102854
   1.84475     -3.014479
   1.81273     -2.998193
   1.78070     -2.994295
   1.74868     -2.997850
   1.71665     -3.003229
   1.68463     -3.004486
   1.65260     -2.997688
   1.62058     -2.980489
   1.58855     -2.953539
   1.55653     -2.920546
   1.52450     -2.886767
   1.49247     -2.857994
   1.46045     -2.838726
   1.42842     -2.831968
   1.42842     -2.831968
   1.39539     -2.834859
   1.36237     -2.843151
   1.32934     -2.855667
   1.29631     -2.870560
   1.26328     -2.885680
   1.23025     -2.898183
   1.19722     -2.905206
   1.16419     -2.904299
   1.13116     -2.893258
   1.09813     -2.954592
   1.06510     -3.102347
   1.03207     -3.194130
   0.99904     -3.253664
   0.96601     -3.298509
   0.93298     -3.388035
   0.89995     -3.476729
   0.86692     -3.514395
   0.83389     -3.533821
   0.80086     -3.548488
   0.80086     -3.548488
   0.75902     -3.563566
   0.71719     -3.575788
   0.67535     -3.529019
   0.63351     -3.520205
   0.59167     -3.591549
   0.59167     -3.591549
   0.55880     -3.598439
   0.52593     -3.615367
   0.49306     -3.579627
   0.46019     -3.468253
   0.42732     -3.332748
   0.39445     -3.179507
   0.36158     -3.013275
   0.32871     -2.839091
   0.29584     -2.827481
   0.26297     -2.849388
   0.23009     -2.864183
   0.19722     -2.871114
   0.16435     -2.870329
   0.13148     -2.863506
   0.09861     -2.853113
   0.06574     -2.842552
   0.03287     -2.834799
   0.00000     -2.831968
 
# Band-Index:   51
   0.00000     -2.831968
   0.03287     -2.834795
   0.06574     -2.842548
   0.09861     -2.853109
   0.13148     -2.863502
   0.16435     -2.870325
   0.19722     -2.871110
   0.23009     -2.864178
   0.26297     -2.849383
   0.29584     -2.827475
   0.32871     -2.801561
   0.36158     -2.977544
   0.39445     -3.143916
   0.42732     -3.296682
   0.46019     -3.432352
   0.49306     -3.546831
   0.52593     -3.615363
   0.55880     -3.503272
   0.59167     -3.330809
   0.59167     -3.330809
   0.63351     -3.348050
   0.67535     -3.385438
   0.71719     -3.417408
   0.75902     -3.430436
   0.80086     -3.425837
   0.80086     -3.425837
   0.83389     -3.412374
   0.86692     -3.392343
   0.89995     -3.366580
   0.93298     -3.335481
   0.96601     -3.272163
   0.99904     -3.156416
   1.03207     -3.052155
   1.06510     -2.968696
   1.09813     -2.909678
   1.13116     -2.873065
   1.16419     -2.852688
   1.19722     -2.842117
   1.23025     -2.837118
   1.26328     -2.834682
   1.29631     -2.833463
   1.32934     -2.832795
   1.36237     -2.832333
   1.39539     -2.832055
   1.42842     -2.831968
   1.42842     -2.831968
   1.46045     -2.830004
   1.49247     -2.824173
   1.52450     -2.814583
   1.55653     -2.801379
   1.58855     -2.784923
   1.62058     -2.765511
   1.65260     -2.743627
   1.68463     -2.719850
   1.71665     -2.883872
   1.74868     -2.997849
   1.78070     -2.994294
   1.81273     -2.998192
   1.84475     -3.013890
   1.87678     -3.040716
   1.90880     -3.068449
   1.94083     -3.080900
   1.94083     -3.080900
   1.97569     -3.081319
   2.01056     -3.071043
   2.04542     -3.061290
   2.08029     -3.050432
   2.11515     -3.039167
   2.15002     -3.025889
   2.18488     -3.009468
   2.21975     -2.987024
   2.25461     -2.956549
   2.28947     -2.916055
   2.32434     -2.864635
   2.35920     -2.810269
   2.35920     -2.810269
   2.39618     -2.860129
   2.43316     -2.946133
   2.47014     -3.042338
   2.50712     -3.141808
   2.54410     -3.237388
   2.58108     -3.311464
   2.61806     -3.333974
   2.65504     -3.330809
 
# Band-Index:   52
   2.65504     -3.330804
   2.61806     -3.333969
   2.58108     -3.311460
   2.54410     -3.237385
   2.50712     -3.141805
   2.47014     -3.042335
   2.43316     -2.946131
   2.39618     -2.860128
   2.35920     -2.810268
   2.35920     -2.810268
   2.32434     -2.808077
   2.28947     -2.825529
   2.25461     -2.834354
   2.21975     -2.835104
   2.18488     -2.831688
   2.15002     -2.829002
   2.11515     -2.836661
   2.08029     -2.870691
   2.04542     -2.940734
   2.01056     -3.028930
   1.97569     -3.078195
   1.94083     -3.080899
   1.94083     -3.080899
   1.90880     -3.068448
   1.87678     -3.040715
   1.84475     -3.013889
   1.81273     -2.900855
   1.78070     -2.768775
   1.74868     -2.669551
   1.71665     -2.694994
   1.68463     -2.645279
   1.65260     -2.416650
   1.62058     -2.204795
   1.58855     -2.018527
   1.55653     -1.865624
   1.52450     -1.747046
   1.49247     -1.661565
   1.46045     -1.609747
   1.42842     -1.592331
   1.42842     -1.592331
   1.39539     -1.610693
   1.36237     -1.664655
   1.32934     -1.751253
   1.29631     -1.864869
   1.26328     -1.999269
   1.23025     -2.146972
   1.19722     -2.330790
   1.16419     -2.548381
   1.13116     -2.761312
   1.09813     -2.870177
   1.06510     -2.834829
   1.03207     -2.787699
   0.99904     -2.731570
   0.96601     -2.671426
   0.93298     -2.615681
   0.89995     -2.577221
   0.86692     -2.573050
   0.83389     -2.621457
   0.80086     -2.740882
   0.80086     -2.740883
   0.75902     -2.902209
   0.71719     -3.066311
   0.67535     -3.220552
   0.63351     -3.318626
   0.59167     -3.330804
   0.59167     -3.330804
   0.55880     -3.155235
   0.52593     -2.977322
   0.49306     -2.882922
   0.46019     -2.814338
   0.42732     -2.768816
   0.39445     -2.759776
   0.36158     -2.775933
   0.32871     -2.801556
   0.29584     -2.661085
   0.26297     -2.483285
   0.23009     -2.309811
   0.19722     -2.144724
   0.16435     -1.992733
   0.13148     -1.858312
   0.09861     -1.746714
   0.06574     -1.662469
   0.03287     -1.610112
   0.00000     -1.592331
 
# Band-Index:   53
   0.00000     -1.592330
   0.03287     -1.594317
   0.06574     -1.600907
   0.09861     -1.614180
   0.13148     -1.688090
   0.16435     -1.861051
   0.19722     -2.045089
   0.23009     -2.234830
   0.26297     -2.426122
   0.29584     -2.616044
   0.32871     -2.800665
   0.36158     -2.775927
   0.39445     -2.759770
   0.42732     -2.768809
   0.46019     -2.814331
   0.49306     -2.882915
   0.52593     -2.951441
   0.55880     -3.001459
   0.59167     -3.019855
   0.59167     -3.019855
   0.63351     -3.000279
   0.67535     -2.945773
   0.71719     -2.867691
   0.75902     -2.771540
   0.80086     -2.672263
   0.80086     -2.672262
   0.83389     -2.608815
   0.86692     -2.524811
   0.89995     -2.496896
   0.93298     -2.555144
   0.96601     -2.633473
   0.99904     -2.698148
   1.03207     -2.733484
   1.06510     -2.727613
   1.09813     -2.674078
   1.13116     -2.576566
   1.16419     -2.446954
   1.19722     -2.299521
   1.23025     -2.116717
   1.26328     -1.913802
   1.29631     -1.735090
   1.32934     -1.629329
   1.36237     -1.602544
   1.39539     -1.594397
   1.42842     -1.592330
   1.42842     -1.592330
   1.46045     -1.593952
   1.49247     -1.599331
   1.52450     -1.610030
   1.55653     -1.661596
   1.58855     -1.823742
   1.62058     -1.987664
   1.65260     -2.149988
   1.68463     -2.311074
   1.71665     -2.469851
   1.74868     -2.623630
   1.78070     -2.645158
   1.81273     -2.622762
   1.84475     -2.603305
   1.87678     -2.588520
   1.90880     -2.579081
   1.94083     -2.575933
   1.94083     -2.575933
   1.97569     -2.582498
   2.01056     -2.597528
   2.04542     -2.607686
   2.08029     -2.593754
   2.11515     -2.543360
   2.15002     -2.471644
   2.18488     -2.497553
   2.21975     -2.547373
   2.25461     -2.600642
   2.28947     -2.655948
   2.32434     -2.708685
   2.35920     -2.743790
   2.35920     -2.743790
   2.39618     -2.719877
   2.43316     -2.717206
   2.47014     -2.759107
   2.50712     -2.827133
   2.54410     -2.899398
   2.58108     -2.961517
   2.61806     -3.004299
   2.65504     -3.019855
 
# Band-Index:   54
   2.65504     -3.019848
   2.61806     -3.004292
   2.58108     -2.961511
   2.54410     -2.899392
   2.50712     -2.827126
   2.47014     -2.759101
   2.43316     -2.717201
   2.39618     -2.719873
   2.35920     -2.743785
   2.35920     -2.743785
   2.32434     -2.700727
   2.28947     -2.614778
   2.25461     -2.523798
   2.21975     -2.445231
   2.18488     -2.416731
   2.15002     -2.450286
   2.11515     -2.405133
   2.08029     -2.362639
   2.04542     -2.324687
   2.01056     -2.294014
   1.97569     -2.273505
   1.94083     -2.266247
   1.94083     -2.266247
   1.90880     -2.265586
   1.87678     -2.255111
   1.84475     -2.222909
   1.81273     -2.165078
   1.78070     -2.085800
   1.74868     -1.993776
   1.71665     -1.900116
   1.68463     -1.815845
   1.65260     -1.747394
   1.62058     -1.694550
   1.58855     -1.655319
   1.55653     -1.627825
   1.52450     -1.610029
   1.49247     -1.599330
   1.46045     -1.593951
   1.42842     -1.592321
   1.42842     -1.592321
   1.39539     -1.593902
   1.36237     -1.598708
   1.32934     -1.607136
   1.29631     -1.619826
   1.26328     -1.637000
   1.23025     -1.659391
   1.19722     -1.713890
   1.16419     -1.841673
   1.13116     -1.964038
   1.09813     -2.070513
   1.06510     -2.152172
   1.03207     -2.204576
   0.99904     -2.230718
   0.96601     -2.237717
   0.93298     -2.281667
   0.89995     -2.377458
   0.86692     -2.474308
   0.83389     -2.569886
   0.80086     -2.662379
   0.80086     -2.662379
   0.75902     -2.768424
   0.71719     -2.864213
   0.67535     -2.945309
   0.63351     -2.999624
   0.59167     -3.019848
   0.59167     -3.019848
   0.55880     -3.001452
   0.52593     -2.951434
   0.49306     -2.798276
   0.46019     -2.619225
   0.42732     -2.441161
   0.39445     -2.324923
   0.36158     -2.228104
   0.32871     -2.116940
   0.29584     -2.004117
   0.26297     -1.897977
   0.23009     -1.805009
   0.19722     -1.730033
   0.16435     -1.674676
   0.13148     -1.637477
   0.09861     -1.614175
   0.06574     -1.600902
   0.03287     -1.594312
   0.00000     -1.592321
 
# Band-Index:   55
   0.00000     -1.283674
   0.03287     -1.316757
   0.06574     -1.405199
   0.09861     -1.533260
   0.13148     -1.637473
   0.16435     -1.674672
   0.19722     -1.730030
   0.23009     -1.805006
   0.26297     -1.897974
   0.29584     -2.004113
   0.32871     -2.116937
   0.36158     -2.228102
   0.39445     -2.324920
   0.42732     -2.388006
   0.46019     -2.402745
   0.49306     -2.378124
   0.52593     -2.332470
   0.55880     -2.279206
   0.59167     -2.246741
   0.59167     -2.246741
   0.63351     -2.244837
   0.67535     -2.239534
   0.71719     -2.231581
   0.75902     -2.223137
   0.80086     -2.217391
   0.80086     -2.217392
   0.83389     -2.216103
   0.86692     -2.219196
   0.89995     -2.230057
   0.93298     -2.233911
   0.96601     -2.188325
   0.99904     -2.098907
   1.03207     -2.014462
   1.06510     -1.936170
   1.09813     -1.864590
   1.13116     -1.800330
   1.16419     -1.744108
   1.19722     -1.695769
   1.23025     -1.655551
   1.26328     -1.622075
   1.29631     -1.588301
   1.32934     -1.512832
   1.36237     -1.398286
   1.39539     -1.314458
   1.42842     -1.283674
   1.42842     -1.283674
   1.46045     -1.311957
   1.49247     -1.391522
   1.52450     -1.512746
   1.55653     -1.627824
   1.58855     -1.655318
   1.62058     -1.694549
   1.65260     -1.747393
   1.68463     -1.815844
   1.71665     -1.900115
   1.74868     -1.993775
   1.78070     -2.085799
   1.81273     -2.165077
   1.84475     -2.222908
   1.87678     -2.255111
   1.90880     -2.265585
   1.94083     -2.266247
   1.94083     -2.266247
   1.97569     -2.263888
   2.01056     -2.259894
   2.04542     -2.260120
   2.08029     -2.268558
   2.11515     -2.285824
   2.15002     -2.310488
   2.18488     -2.332509
   2.21975     -2.307840
   2.25461     -2.276582
   2.28947     -2.258168
   2.32434     -2.243835
   2.35920     -2.226143
   2.35920     -2.226143
   2.39618     -2.258664
   2.43316     -2.295828
   2.47014     -2.298718
   2.50712     -2.278290
   2.54410     -2.253929
   2.58108     -2.239802
   2.61806     -2.241607
   2.65504     -2.246741
 
# Band-Index:   56
   2.65504     -2.246735
   2.61806     -2.241601
   2.58108     -2.239797
   2.54410     -2.253925
   2.50712     -2.278286
   2.47014     -2.298714
   2.43316     -2.295824
   2.39618     -2.258660
   2.35920     -2.226139
   2.35920     -2.226139
   2.32434     -2.200565
   2.28947     -2.167060
   2.25461     -2.130085
   2.21975     -2.110157
   2.18488     -2.119234
   2.15002     -2.131362
   2.11515     -2.141769
   2.08029     -2.148777
   2.04542     -2.151756
   2.01056     -2.150706
   1.97569     -2.148016
   1.94083     -2.146786
   1.94083     -2.146786
   1.90880     -2.130428
   1.87678     -2.089288
   1.84475     -2.034030
   1.81273     -1.970667
   1.78070     -1.901924
   1.74868     -1.828840
   1.71665     -1.750008
   1.68463     -1.663818
   1.65260     -1.574034
   1.62058     -1.489943
   1.58855     -1.421071
   1.55653     -1.369815
   1.52450     -1.332748
   1.49247     -1.305935
   1.46045     -1.289446
   1.42842     -1.283673
   1.42842     -1.283673
   1.39539     -1.290976
   1.36237     -1.312573
   1.32934     -1.349602
   1.29631     -1.405818
   1.26328     -1.486692
   1.23025     -1.592101
   1.19722     -1.687475
   1.16419     -1.721632
   1.13116     -1.762091
   1.09813     -1.808993
   1.06510     -1.862446
   1.03207     -1.921957
   0.99904     -1.986506
   0.96601     -2.069951
   0.93298     -2.165295
   0.89995     -2.226113
   0.86692     -2.206066
   0.83389     -2.201931
   0.80086     -2.187566
   0.80086     -2.187565
   0.75902     -2.167005
   0.71719     -2.152556
   0.67535     -2.194100
   0.63351     -2.233038
   0.59167     -2.246735
   0.59167     -2.246735
   0.55880     -2.279201
   0.52593     -2.332466
   0.49306     -2.378121
   0.46019     -2.402742
   0.42732     -2.388003
   0.39445     -2.264992
   0.36158     -2.092681
   0.32871     -1.925695
   0.29584     -1.765854
   0.26297     -1.614918
   0.23009     -1.475501
   0.19722     -1.401949
   0.16435     -1.370609
   0.13148     -1.342334
   0.09861     -1.318150
   0.06574     -1.299550
   0.03287     -1.287896
   0.00000     -1.283673
 
# Band-Index:   57
   0.00000     -1.283668
   0.03287     -1.287892
   0.06574     -1.299546
   0.09861     -1.318146
   0.13148     -1.342329
   0.16435     -1.370605
   0.19722     -1.401945
   0.23009     -1.437464
   0.26297     -1.481121
   0.29584     -1.535223
   0.32871     -1.597995
   0.36158     -1.666398
   0.39445     -1.738350
   0.42732     -1.812622
   0.46019     -1.887519
   0.49306     -1.962584
   0.52593     -2.035827
   0.55880     -2.102490
   0.59167     -2.139242
   0.59167     -2.139242
   0.63351     -2.140377
   0.67535     -2.144355
   0.71719     -2.140020
   0.75902     -2.083855
   0.80086     -2.063436
   0.80086     -2.063436
   0.83389     -2.123098
   0.86692     -2.200866
   0.89995     -2.171615
   0.93298     -2.118485
   0.96601     -2.053581
   0.99904     -1.970549
   1.03207     -1.874222
   1.06510     -1.783262
   1.09813     -1.698648
   1.13116     -1.621149
   1.16419     -1.550985
   1.19722     -1.488580
   1.23025     -1.434186
   1.26328     -1.388108
   1.29631     -1.350238
   1.32934     -1.321141
   1.36237     -1.300473
   1.39539     -1.288232
   1.42842     -1.283668
   1.42842     -1.283668
   1.46045     -1.289445
   1.49247     -1.305934
   1.52450     -1.332747
   1.55653     -1.369814
   1.58855     -1.421070
   1.62058     -1.489942
   1.65260     -1.574033
   1.68463     -1.663817
   1.71665     -1.750007
   1.74868     -1.828839
   1.78070     -1.901923
   1.81273     -1.970666
   1.84475     -2.034029
   1.87678     -2.089287
   1.90880     -2.130427
   1.94083     -2.146786
   1.94083     -2.146786
   1.97569     -2.142729
   2.01056     -2.131902
   2.04542     -2.116627
   2.08029     -2.099509
   2.11515     -2.084273
   2.15002     -2.075547
   2.18488     -2.079034
   2.21975     -2.097903
   2.25461     -2.104571
   2.28947     -2.090886
   2.32434     -2.067095
   2.35920     -2.035530
   2.35920     -2.035530
   2.39618     -1.986051
   2.43316     -1.905850
   2.47014     -1.912275
   2.50712     -1.978426
   2.54410     -2.049067
   2.58108     -2.105128
   2.61806     -2.133026
   2.65504     -2.139242
 
# Band-Index:   58
   2.65504     -2.139242
   2.61806     -2.133025
   2.58108     -2.105127
   2.54410     -2.049065
   2.50712     -1.978423
   2.47014     -1.912272
   2.43316     -1.905845
   2.39618     -1.986047
   2.35920     -2.035527
   2.35920     -2.035527
   2.32434     -1.996612
   2.28947     -1.950856
   2.25461     -1.945821
   2.21975     -1.968273
   2.18488     -1.932271
   2.15002     -1.846757
   2.11515     -1.738206
   2.08029     -1.626140
   2.04542     -1.524570
   2.01056     -1.475471
   1.97569     -1.434708
   1.94083     -1.414514
   1.94083     -1.414514
   1.90880     -1.409777
   1.87678     -1.395887
   1.84475     -1.373623
   1.81273     -1.356465
   1.78070     -1.350009
   1.74868     -1.341380
   1.71665     -1.329591
   1.68463     -1.312964
   1.65260     -1.289058
   1.62058     -1.254224
   1.58855     -1.205975
   1.55653     -1.148695
   1.52450     -1.093006
   1.49247     -1.048776
   1.46045     -1.027583
   1.42842     -1.024628
   1.42842     -1.024628
   1.39539     -1.029480
   1.36237     -1.060494
   1.32934     -1.118232
   1.29631     -1.187892
   1.26328     -1.257491
   1.23025     -1.319859
   1.19722     -1.375571
   1.16419     -1.427231
   1.13116     -1.476312
   1.09813     -1.523091
   1.06510     -1.567161
   1.03207     -1.607320
   0.99904     -1.642262
   0.96601     -1.670253
   0.93298     -1.711173
   0.89995     -1.771210
   0.86692     -1.826994
   0.83389     -1.870432
   0.80086     -1.886418
   0.80086     -1.886421
   0.75902     -1.961225
   0.71719     -2.029755
   0.67535     -2.086763
   0.63351     -2.125661
   0.59167     -2.139242
   0.59167     -2.139242
   0.55880     -2.102488
   0.52593     -2.035825
   0.49306     -1.962582
   0.46019     -1.887516
   0.42732     -1.812619
   0.39445     -1.738347
   0.36158     -1.666394
   0.32871     -1.597992
   0.29584     -1.535219
   0.26297     -1.481117
   0.23009     -1.437460
   0.19722     -1.350177
   0.16435     -1.241807
   0.13148     -1.153500
   0.09861     -1.088385
   0.06574     -1.047329
   0.03287     -1.028856
   0.00000     -1.024628
 
# Band-Index:   59
   0.00000     -1.024628
   0.03287     -1.024764
   0.06574     -1.028232
   0.09861     -1.067927
   0.13148     -1.118949
   0.16435     -1.176972
   0.19722     -1.236726
   0.23009     -1.291906
   0.26297     -1.336672
   0.29584     -1.368925
   0.32871     -1.391170
   0.36158     -1.407260
   0.39445     -1.419767
   0.42732     -1.429470
   0.46019     -1.437336
   0.49306     -1.443223
   0.52593     -1.447352
   0.55880     -1.449868
   0.59167     -1.450742
   0.59167     -1.450742
   0.63351     -1.474249
   0.67535     -1.542371
   0.71719     -1.646437
   0.75902     -1.770776
   0.80086     -1.870262
   0.80086     -1.870260
   0.83389     -1.824263
   0.86692     -1.761110
   0.89995     -1.697190
   0.93298     -1.689234
   0.96601     -1.649082
   0.99904     -1.585992
   1.03207     -1.522472
   1.06510     -1.459143
   1.09813     -1.396520
   1.13116     -1.335552
   1.16419     -1.277159
   1.19722     -1.221269
   1.23025     -1.169413
   1.26328     -1.122473
   1.29631     -1.080724
   1.32934     -1.045443
   1.36237     -1.031238
   1.39539     -1.025852
   1.42842     -1.024628
   1.42842     -1.024628
   1.46045     -1.027582
   1.49247     -1.048776
   1.52450     -1.093006
   1.55653     -1.148695
   1.58855     -1.205974
   1.62058     -1.254223
   1.65260     -1.289057
   1.68463     -1.312963
   1.71665     -1.329590
   1.74868     -1.341379
   1.78070     -1.350008
   1.81273     -1.356464
   1.84475     -1.361312
   1.87678     -1.364460
   1.90880     -1.366271
   1.94083     -1.366904
   1.94083     -1.366904
   1.97569     -1.385993
   2.01056     -1.440515
   2.04542     -1.523417
   2.08029     -1.578604
   2.11515     -1.636570
   2.15002     -1.698799
   2.18488     -1.765762
   2.21975     -1.833821
   2.25461     -1.896697
   2.28947     -1.890017
   2.32434     -1.823314
   2.35920     -1.757218
   2.35920     -1.757218
   2.39618     -1.771138
   2.43316     -1.797409
   2.47014     -1.750191
   2.50712     -1.658642
   2.54410     -1.574492
   2.58108     -1.508059
   2.61806     -1.465435
   2.65504     -1.450742
 
# Band-Index:   60
   2.65504     -1.450737
   2.61806     -1.465431
   2.58108     -1.508054
   2.54410     -1.574487
   2.50712     -1.658637
   2.47014     -1.750186
   2.43316     -1.797402
   2.39618     -1.771131
   2.35920     -1.757211
   2.35920     -1.757211
   2.32434     -1.697080
   2.28947     -1.645719
   2.25461     -1.602794
   2.21975     -1.562940
   2.18488     -1.518682
   2.15002     -1.466335
   2.11515     -1.413838
   2.08029     -1.373813
   2.04542     -1.352497
   2.01056     -1.348439
   1.97569     -1.357262
   1.94083     -1.366903
   1.94083     -1.366903
   1.90880     -1.366270
   1.87678     -1.364459
   1.84475     -1.361311
   1.81273     -1.344638
   1.78070     -1.310130
   1.74868     -1.271923
   1.71665     -1.231632
   1.68463     -1.190597
   1.65260     -1.150826
   1.62058     -1.113418
   1.58855     -1.079539
   1.55653     -1.050259
   1.52450     -1.026637
   1.49247     -1.009069
   1.46045     -0.999956
   1.42842     -0.994781
   1.42842     -0.994781
   1.39539     -1.001196
   1.36237     -1.018150
   1.32934     -1.043535
   1.29631     -1.063559
   1.26328     -1.090640
   1.23025     -1.124635
   1.19722     -1.164835
   1.16419     -1.211236
   1.13116     -1.262447
   1.09813     -1.318121
   1.06510     -1.377454
   1.03207     -1.439196
   0.99904     -1.502762
   0.96601     -1.567195
   0.93298     -1.632036
   0.89995     -1.696762
   0.86692     -1.692780
   0.83389     -1.676188
   0.80086     -1.648402
   0.80086     -1.648400
   0.75902     -1.601661
   0.71719     -1.549827
   0.67535     -1.500820
   0.63351     -1.464473
   0.59167     -1.450737
   0.59167     -1.450737
   0.55880     -1.449864
   0.52593     -1.447347
   0.49306     -1.443218
   0.46019     -1.437332
   0.42732     -1.429465
   0.39445     -1.419762
   0.36158     -1.407256
   0.32871     -1.391166
   0.29584     -1.368922
   0.26297     -1.336668
   0.23009     -1.291903
   0.19722     -1.236723
   0.16435     -1.176969
   0.13148     -1.118946
   0.09861     -1.067923
   0.06574     -1.028229
   0.03287     -1.003285
   0.00000     -0.994781
 
# Band-Index:   61
   0.00000     -0.994776
   0.03287     -1.003282
   0.06574     -1.024708
   0.09861     -1.024729
   0.13148     -1.025087
   0.16435     -1.025308
   0.19722     -1.025968
   0.23009     -1.026869
   0.26297     -1.028101
   0.29584     -1.029883
   0.32871     -1.031845
   0.36158     -1.034029
   0.39445     -1.036628
   0.42732     -1.038820
   0.46019     -1.040874
   0.49306     -1.042596
   0.52593     -1.043803
   0.55880     -1.044595
   0.59167     -1.044810
   0.59167     -1.044810
   0.63351     -1.059944
   0.67535     -1.103773
   0.71719     -1.168064
   0.75902     -1.242004
   0.80086     -1.312342
   0.80086     -1.312344
   0.83389     -1.357162
   0.86692     -1.387403
   0.89995     -1.401825
   0.93298     -1.401268
   0.96601     -1.387612
   0.99904     -1.363603
   1.03207     -1.331587
   1.06510     -1.294200
   1.09813     -1.253787
   1.13116     -1.212389
   1.16419     -1.171718
   1.19722     -1.133238
   1.23025     -1.098528
   1.26328     -1.067717
   1.29631     -1.042018
   1.32934     -1.021422
   1.36237     -1.006651
   1.39539     -1.000774
   1.42842     -0.994776
   1.42842     -0.994776
   1.46045     -0.999956
   1.49247     -1.002435
   1.52450     -0.996219
   1.55653     -0.986788
   1.58855     -0.976651
   1.62058     -0.966933
   1.65260     -0.957888
   1.68463     -0.949767
   1.71665     -0.942681
   1.74868     -0.936524
   1.78070     -0.931262
   1.81273     -0.927154
   1.84475     -0.924022
   1.87678     -0.921722
   1.90880     -0.920071
   1.94083     -0.919647
   1.94083     -0.919647
   1.97569     -0.932709
   2.01056     -0.969609
   2.04542     -1.024123
   2.08029     -1.086092
   2.11515     -1.143269
   2.15002     -1.187994
   2.18488     -1.219104
   2.21975     -1.236976
   2.25461     -1.240434
   2.28947     -1.228428
   2.32434     -1.202810
   2.35920     -1.167851
   2.35920     -1.167851
   2.39618     -1.159824
   2.43316     -1.139235
   2.47014     -1.113268
   2.50712     -1.087962
   2.54410     -1.067915
   2.58108     -1.054266
   2.61806     -1.047016
   2.65504     -1.044810
 
# Band-Index:   62
   2.65504     -1.044803
   2.61806     -1.047009
   2.58108     -1.054259
   2.54410     -1.067908
   2.50712     -1.087956
   2.47014     -1.113262
   2.43316     -1.139230
   2.39618     -1.159819
   2.35920     -1.167846
   2.35920     -1.167846
   2.32434     -1.127764
   2.28947     -1.086525
   2.25461     -1.046834
   2.21975     -1.010743
   2.18488     -0.979651
   2.15002     -0.954451
   2.11515     -0.935684
   2.08029     -0.923433
   2.04542     -0.917755
   2.01056     -0.916878
   1.97569     -0.918461
   1.94083     -0.919646
   1.94083     -0.919646
   1.90880     -0.920070
   1.87678     -0.921721
   1.84475     -0.924021
   1.81273     -0.927153
   1.78070     -0.931261
   1.74868     -0.936523
   1.71665     -0.942680
   1.68463     -0.949766
   1.65260     -0.957887
   1.62058     -0.966932
   1.58855     -0.976650
   1.55653     -0.986787
   1.52450     -0.996218
   1.49247     -1.002434
   1.46045     -0.998370
   1.42842     -0.994775
   1.42842     -0.994775
   1.39539     -0.997745
   1.36237     -1.002272
   1.32934     -0.993684
   1.29631     -0.981509
   1.26328     -0.967806
   1.23025     -0.953156
   1.19722     -0.938824
   1.16419     -0.924988
   1.13116     -0.911893
   1.09813     -0.900107
   1.06510     -0.890014
   1.03207     -0.882101
   0.99904     -0.876803
   0.96601     -0.874743
   0.93298     -0.876018
   0.89995     -0.881135
   0.86692     -0.890336
   0.83389     -0.903822
   0.80086     -0.921382
   0.80086     -0.921381
   0.75902     -0.948606
   0.71719     -0.979788
   0.67535     -1.010834
   0.63351     -1.035288
   0.59167     -1.044803
   0.59167     -1.044803
   0.55880     -1.044345
   0.52593     -1.043286
   0.49306     -1.041782
   0.46019     -1.039395
   0.42732     -1.036402
   0.39445     -1.032959
   0.36158     -1.028804
   0.32871     -1.024635
   0.29584     -1.020392
   0.26297     -1.015987
   0.23009     -1.011825
   0.19722     -1.007799
   0.16435     -1.004118
   0.13148     -1.001088
   0.09861     -0.998292
   0.06574     -0.996328
   0.03287     -0.995158
   0.00000     -0.994775
 
# Band-Index:   63
   0.00000      1.530042
   0.03287      1.557236
   0.06574      1.635990
   0.09861      1.758897
   0.13148      1.874749
   0.16435      1.932976
   0.19722      2.006224
   0.23009      2.093985
   0.26297      2.195762
   0.29584      2.309740
   0.32871      2.434612
   0.36158      2.568456
   0.39445      2.708687
   0.42732      2.852916
   0.46019      2.997210
   0.49306      3.137629
   0.52593      3.269571
   0.55880      3.390376
   0.59167      3.490856
   0.59167      3.490856
   0.63351      3.497414
   0.67535      3.510523
   0.71719      3.513277
   0.75902      3.488089
   0.80086      3.431825
   0.80086      3.431825
   0.83389      3.370459
   0.86692      3.297743
   0.89995      3.214889
   0.93298      3.124379
   0.96601      3.027255
   0.99904      2.924544
   1.03207      2.817115
   1.06510      2.705679
   1.09813      2.591113
   1.13116      2.474403
   1.16419      2.353081
   1.19722      2.221734
   1.23025      2.104533
   1.26328      2.003898
   1.29631      1.882013
   1.32934      1.750562
   1.36237      1.635073
   1.39539      1.557376
   1.42842      1.530042
   1.42842      1.530042
   1.46045      1.555730
   1.49247      1.628431
   1.52450      1.734008
   1.55653      1.842254
   1.58855      1.931570
   1.62058      2.016836
   1.65260      2.105634
   1.68463      2.197758
   1.71665      2.291339
   1.74868      2.384363
   1.78070      2.474008
   1.81273      2.556915
   1.84475      2.629803
   1.87678      2.687512
   1.90880      2.725211
   1.94083      2.738332
   1.94083      2.738332
   1.97569      2.753708
   2.01056      2.798007
   2.04542      2.867827
   2.08029      2.958031
   2.11515      3.061734
   2.15002      3.171875
   2.18488      3.279375
   2.21975      3.377414
   2.25461      3.462852
   2.28947      3.536179
   2.32434      3.595094
   2.35920      3.634764
   2.35920      3.634764
   2.39618      3.630570
   2.43316      3.617482
   2.47014      3.595543
   2.50712      3.567552
   2.54410      3.538156
   2.58108      3.513469
   2.61806      3.496752
   2.65504      3.490856
 
# Band-Index:   64
   2.65504      3.490857
   2.61806      3.496754
   2.58108      3.513472
   2.54410      3.538160
   2.50712      3.567556
   2.47014      3.595548
   2.43316      3.617487
   2.39618      3.630575
   2.35920      3.634768
   2.35920      3.634768
   2.32434      3.650553
   2.28947      3.640156
   2.25461      3.603153
   2.21975      3.506666
   2.18488      3.415395
   2.15002      3.335918
   2.11515      3.268352
   2.08029      3.213378
   2.04542      3.169893
   2.01056      3.138814
   1.97569      3.119873
   1.94083      3.113368
   1.94083      3.113368
   1.90880      3.095347
   1.87678      3.043216
   1.84475      2.963329
   1.81273      2.862053
   1.78070      2.747185
   1.74868      2.624269
   1.71665      2.498044
   1.68463      2.372715
   1.65260      2.251901
   1.62058      2.138764
   1.58855      2.036781
   1.55653      1.948845
   1.52450      1.869696
   1.49247      1.817284
   1.46045      1.789609
   1.42842      1.780815
   1.42842      1.780815
   1.39539      1.789109
   1.36237      1.814639
   1.32934      1.858501
   1.29631      1.921728
   1.26328      2.005678
   1.23025      2.122103
   1.19722      2.238693
   1.16419      2.356417
   1.13116      2.495926
   1.09813      2.647074
   1.06510      2.802598
   1.03207      2.957455
   0.99904      3.106157
   0.96601      3.242480
   0.93298      3.359516
   0.89995      3.452360
   0.86692      3.517837
   0.83389      3.557011
   0.80086      3.572631
   0.80086      3.572633
   0.75902      3.567884
   0.71719      3.545833
   0.67535      3.519111
   0.63351      3.498688
   0.59167      3.490857
   0.59167      3.490857
   0.55880      3.568167
   0.52593      3.617144
   0.49306      3.632616
   0.46019      3.552071
   0.42732      3.414253
   0.39445      3.256627
   0.36158      3.086234
   0.32871      2.908769
   0.29584      2.730388
   0.26297      2.556213
   0.23009      2.391426
   0.19722      2.240097
   0.16435      2.099442
   0.13148      1.916567
   0.09861      1.831365
   0.06574      1.802498
   0.03287      1.786066
   0.00000      1.780815
 
# Band-Index:   65
   0.00000      1.780815
   0.03287      1.794330
   0.06574      1.834695
   0.09861      1.901096
   0.13148      1.992169
   0.16435      2.106152
   0.19722      2.240098
   0.23009      2.391427
   0.26297      2.556214
   0.29584      2.730389
   0.32871      2.908770
   0.36158      3.086235
   0.39445      3.256628
   0.42732      3.414254
   0.46019      3.552072
   0.49306      3.665125
   0.52593      3.748630
   0.55880      3.799516
   0.59167      3.816668
   0.59167      3.816668
   0.63351      3.815119
   0.67535      3.812976
   0.71719      3.803116
   0.75902      3.781171
   0.80086      3.740020
   0.80086      3.740019
   0.83389      3.690119
   0.86692      3.621604
   0.89995      3.533255
   0.93298      3.424278
   0.96601      3.297859
   0.99904      3.157406
   1.03207      3.007573
   1.06510      2.852884
   1.09813      2.697641
   1.13116      2.545971
   1.16419      2.401426
   1.19722      2.266840
   1.23025      2.144662
   1.26328      2.037727
   1.29631      1.947558
   1.32934      1.875515
   1.36237      1.823207
   1.39539      1.791443
   1.42842      1.780815
   1.42842      1.780815
   1.46045      1.791747
   1.49247      1.824210
   1.52450      1.877077
   1.55653      1.948846
   1.58855      2.036782
   1.62058      2.138764
   1.65260      2.251901
   1.68463      2.372716
   1.71665      2.498045
   1.74868      2.624270
   1.78070      2.747185
   1.81273      2.862054
   1.84475      2.963330
   1.87678      3.043216
   1.90880      3.095348
   1.94083      3.113368
   1.94083      3.113368
   1.97569      3.124785
   2.01056      3.157365
   2.04542      3.207082
   2.08029      3.269549
   2.11515      3.339603
   2.15002      3.413476
   2.18488      3.485906
   2.21975      3.552089
   2.25461      3.605404
   2.28947      3.695885
   2.32434      3.776902
   2.35920      3.843248
   2.35920      3.843248
   2.39618      3.839315
   2.43316      3.829768
   2.47014      3.819733
   2.50712      3.814039
   2.54410      3.812511
   2.58108      3.813947
   2.61806      3.815839
   2.65504      3.816668
 
# Band-Index:   66
   2.65504      3.816669
   2.61806      3.815840
   2.58108      3.813949
   2.54410      3.812513
   2.50712      3.814041
   2.47014      3.819734
   2.43316      3.829770
   2.39618      3.839318
   2.35920      3.843252
   2.35920      3.843252
   2.32434      3.895396
   2.28947      3.931634
   2.25461      3.951366
   2.21975      3.954029
   2.18488      3.939161
   2.15002      3.909315
   2.11515      3.869105
   2.08029      3.813524
   2.04542      3.687335
   2.01056      3.592367
   1.97569      3.534158
   1.94083      3.514432
   1.94083      3.514432
   1.90880      3.513070
   1.87678      3.504894
   1.84475      3.473115
   1.81273      3.380120
   1.78070      3.236143
   1.74868      3.066445
   1.71665      2.881689
   1.68463      2.688062
   1.65260      2.491650
   1.62058      2.298727
   1.58855      2.118047
   1.55653      1.966373
   1.52450      1.877078
   1.49247      1.824211
   1.46045      1.791748
   1.42842      1.780816
   1.42842      1.780816
   1.39539      1.794484
   1.36237      1.835528
   1.32934      1.905168
   1.29631      2.011660
   1.26328      2.164099
   1.23025      2.349753
   1.19722      2.550483
   1.16419      2.756245
   1.13116      2.960819
   1.09813      3.158732
   1.06510      3.345130
   1.03207      3.515148
   0.99904      3.663008
   0.96601      3.782689
   0.93298      3.868954
   0.89995      3.919669
   0.86692      3.937143
   0.83389      3.928371
   0.80086      3.901112
   0.80086      3.901111
   0.75902      3.859487
   0.71719      3.827065
   0.67535      3.814936
   0.63351      3.816084
   0.59167      3.816669
   0.59167      3.816669
   0.55880      3.799517
   0.52593      3.748631
   0.49306      3.665126
   0.46019      3.609333
   0.42732      3.544037
   0.39445      3.437179
   0.36158      3.292927
   0.32871      3.119317
   0.29584      2.925236
   0.26297      2.718847
   0.23009      2.507834
   0.19722      2.298978
   0.16435      2.106153
   0.13148      1.992169
   0.09861      1.901096
   0.06574      1.834695
   0.03287      1.794331
   0.00000      1.780816
 
# Band-Index:   67
   0.00000      2.421593
   0.03287      2.441123
   0.06574      2.497981
   0.09861      2.587657
   0.13148      2.704810
   0.16435      2.843472
   0.19722      2.998115
   0.23009      3.164511
   0.26297      3.338644
   0.29584      3.517135
   0.32871      3.696862
   0.36158      3.875809
   0.39445      4.051107
   0.42732      4.221846
   0.46019      4.386281
   0.49306      4.543713
   0.52593      4.692958
   0.55880      4.833334
   0.59167      4.961350
   0.59167      4.961350
   0.63351      4.955125
   0.67535      4.937295
   0.71719      4.910487
   0.75902      4.878539
   0.80086      4.844287
   0.80086      4.844286
   0.83389      4.816854
   0.86692      4.751427
   0.89995      4.582773
   0.93298      4.417106
   0.96601      4.255132
   0.99904      4.095385
   1.03207      3.936344
   1.06510      3.776517
   1.09813      3.615656
   1.13116      3.453978
   1.16419      3.293099
   1.19722      3.134145
   1.23025      2.979972
   1.26328      2.834081
   1.29631      2.701305
   1.32934      2.587272
   1.36237      2.498261
   1.39539      2.441282
   1.42842      2.421593
   1.42842      2.421593
   1.46045      2.440104
   1.49247      2.493657
   1.52450      2.576936
   1.55653      2.683156
   1.58855      2.803702
   1.62058      2.930961
   1.65260      3.057596
   1.68463      3.176731
   1.71665      3.283089
   1.74868      3.372714
   1.78070      3.443860
   1.81273      3.499888
   1.84475      3.562578
   1.87678      3.641099
   1.90880      3.697861
   1.94083      3.717830
   1.94083      3.717830
   1.97569      3.725704
   2.01056      3.748312
   2.04542      3.783080
   2.08029      3.827842
   2.11515      3.972729
   2.15002      4.150029
   2.18488      4.341587
   2.21975      4.541574
   2.25461      4.743615
   2.28947      4.942796
   2.32434      5.130817
   2.35920      5.260736
   2.35920      5.260736
   2.39618      5.251342
   2.43316      5.218751
   2.47014      5.166461
   2.50712      5.106476
   2.54410      5.049181
   2.58108      5.002729
   2.61806      4.971844
   2.65504      4.961350
 
# Band-Index:   68
   2.65504      4.961363
   2.61806      4.971856
   2.58108      5.002741
   2.54410      5.049193
   2.50712      5.106488
   2.47014      5.166474
   2.43316      5.218763
   2.39618      5.251351
   2.35920      5.260745
   2.35920      5.260745
   2.32434      5.249234
   2.28947      5.194945
   2.25461      5.125724
   2.21975      5.043946
   2.18488      4.950299
   2.15002      4.847903
   2.11515      4.742343
   2.08029      4.641065
   2.04542      4.551944
   2.01056      4.482258
   1.97569      4.437821
   1.94083      4.422483
   1.94083      4.422483
   1.90880      4.429157
   1.87678      4.448324
   1.84475      4.478126
   1.81273      4.515742
   1.78070      4.555332
   1.74868      4.588261
   1.71665      4.604537
   1.68463      4.596281
   1.65260      4.562795
   1.62058      4.511978
   1.58855      4.454054
   1.55653      4.398466
   1.52450      4.351323
   1.49247      4.315481
   1.46045      4.293277
   1.42842      4.285778
   1.42842      4.285778
   1.39539      4.293750
   1.36237      4.317367
   1.32934      4.355317
   1.29631      4.406199
   1.26328      4.466712
   1.23025      4.532787
   1.19722      4.599025
   1.16419      4.657544
   1.13116      4.702467
   1.09813      4.729632
   1.06510      4.739121
   1.03207      4.738230
   0.99904      4.734634
   0.96601      4.736178
   0.93298      4.746206
   0.89995      4.765347
   0.86692      4.789908
   0.83389      4.919363
   0.80086      5.078696
   0.80086      5.078696
   0.75902      5.236773
   0.71719      5.219825
   0.67535      5.089936
   0.63351      4.995021
   0.59167      4.961363
   0.59167      4.961363
   0.55880      5.072101
   0.52593      5.156191
   0.49306      5.191033
   0.46019      5.139947
   0.42732      5.053064
   0.39445      4.972256
   0.36158      4.901218
   0.32871      4.833534
   0.29584      4.764342
   0.26297      4.690295
   0.23009      4.614837
   0.19722      4.538600
   0.16435      4.468477
   0.13148      4.406027
   0.09861      4.355263
   0.06574      4.317134
   0.03287      4.293680
   0.00000      4.285778
 
# Band-Index:   69
   0.00000      4.554559
   0.03287      4.565369
   0.06574      4.597286
   0.09861      4.648207
   0.13148      4.715030
   0.16435      4.793300
   0.19722      4.876862
   0.23009      4.959763
   0.26297      5.036739
   0.29584      5.105746
   0.32871      5.167239
   0.36158      5.221862
   0.39445      5.266077
   0.42732      5.295904
   0.46019      5.310826
   0.49306      5.347723
   0.52593      5.450882
   0.55880      5.580657
   0.59167      5.714387
   0.59167      5.714387
   0.63351      5.691893
   0.67535      5.627921
   0.71719      5.543208
   0.75902      5.550627
   0.80086      5.484788
   0.80086      5.484790
   0.83389      5.433198
   0.86692      5.387099
   0.89995      5.348823
   0.93298      5.317987
   0.96601      5.290872
   0.99904      5.261767
   1.03207      5.225768
   1.06510      5.179590
   1.09813      5.121842
   1.13116      5.052356
   1.16419      4.973731
   1.19722      4.891166
   1.23025      4.810675
   1.26328      4.736633
   1.29631      4.673268
   1.32934      4.622289
   1.36237      4.584977
   1.39539      4.562174
   1.42842      4.554559
   1.42842      4.554559
   1.46045      4.560692
   1.49247      4.579312
   1.52450      4.610554
   1.55653      4.655156
   1.58855      4.713335
   1.62058      4.785634
   1.65260      4.872645
   1.68463      4.973801
   1.71665      5.088068
   1.74868      5.194901
   1.78070      5.144794
   1.81273      5.071912
   1.84475      4.994672
   1.87678      4.926865
   1.90880      4.881065
   1.94083      4.864590
   1.94083      4.864590
   1.97569      4.874353
   2.01056      4.901715
   2.04542      4.945785
   2.08029      5.004905
   2.11515      5.074905
   2.15002      5.152293
   2.18488      5.229646
   2.21975      5.298985
   2.25461      5.348890
   2.28947      5.371711
   2.32434      5.370710
   2.35920      5.395876
   2.35920      5.395876
   2.39618      5.404017
   2.43316      5.433600
   2.47014      5.484193
   2.50712      5.545735
   2.54410      5.607186
   2.58108      5.660817
   2.61806      5.700005
   2.65504      5.714387
 
# Band-Index:   70
   2.65504      5.714401
   2.61806      5.700019
   2.58108      5.660831
   2.54410      5.607200
   2.50712      5.545750
   2.47014      5.484209
   2.43316      5.433617
   2.39618      5.404036
   2.35920      5.395897
   2.35920      5.395897
   2.32434      5.534442
   2.28947      5.677877
   2.25461      5.762432
   2.21975      5.735907
   2.18488      5.616616
   2.15002      5.459694
   2.11515      5.298841
   2.08029      5.152540
   2.04542      5.030662
   2.01056      4.939743
   1.97569      4.883793
   1.94083      4.864590
   1.94083      4.864590
   1.90880      4.881065
   1.87678      4.926865
   1.84475      4.994672
   1.81273      5.071912
   1.78070      5.144794
   1.74868      5.194901
   1.71665      5.204142
   1.68463      5.163849
   1.65260      5.082460
   1.62058      4.978451
   1.58855      4.868765
   1.55653      4.765637
   1.52450      4.677225
   1.49247      4.610454
   1.46045      4.568721
   1.42842      4.554559
   1.42842      4.554559
   1.39539      4.567390
   1.36237      4.605584
   1.32934      4.667755
   1.29631      4.751570
   1.26328      4.854351
   1.23025      4.972341
   1.19722      5.101535
   1.16419      5.237736
   1.13116      5.376996
   1.09813      5.515572
   1.06510      5.648856
   1.03207      5.772172
   0.99904      5.858016
   0.96601      5.849828
   0.93298      5.874316
   0.89995      5.934708
   0.86692      6.029010
   0.83389      6.011312
   0.80086      5.802595
   0.80086      5.802592
   0.75902      5.581950
   0.71719      5.610217
   0.67535      5.660821
   0.63351      5.698548
   0.59167      5.714401
   0.59167      5.714401
   0.55880      5.844123
   0.52593      5.964669
   0.49306      5.949986
   0.46019      5.884752
   0.42732      5.813740
   0.39445      5.732865
   0.36158      5.634795
   0.32871      5.515650
   0.29584      5.381684
   0.26297      5.241242
   0.23009      5.102624
   0.19722      4.971693
   0.16435      4.853096
   0.13148      4.750237
   0.09861      4.666692
   0.06574      4.605135
   0.03287      4.567293
   0.00000      4.554559
 
# Band-Index:   71
   0.00000      4.554566
   0.03287      4.567297
   0.06574      4.605139
   0.09861      4.666695
   0.13148      4.750240
   0.16435      4.853099
   0.19722      4.971696
   0.23009      5.102627
   0.26297      5.241244
   0.29584      5.381686
   0.32871      5.515651
   0.36158      5.634796
   0.39445      5.732866
   0.42732      5.813741
   0.46019      5.884753
   0.49306      5.949987
   0.52593      6.006781
   0.55880      6.047050
   0.59167      6.061668
   0.59167      6.061668
   0.63351      6.079425
   0.67535      6.123605
   0.71719      6.179463
   0.75902      6.240040
   0.80086      6.296359
   0.80086      6.296362
   0.83389      6.154685
   0.86692      6.174630
   0.89995      6.148010
   0.93298      6.064701
   0.96601      5.976947
   0.99904      5.881435
   1.03207      5.892550
   1.06510      5.784599
   1.09813      5.635830
   1.13116      5.486215
   1.16419      5.336770
   1.19722      5.189502
   1.23025      5.046945
   1.26328      4.913955
   1.29631      4.794470
   1.32934      4.694381
   1.36237      4.618216
   1.39539      4.570712
   1.42842      4.554566
   1.42842      4.554566
   1.46045      4.568722
   1.49247      4.610455
   1.52450      4.677225
   1.55653      4.765637
   1.58855      4.868765
   1.62058      4.978452
   1.65260      5.082461
   1.68463      5.163850
   1.71665      5.204143
   1.74868      5.212146
   1.78070      5.341567
   1.81273      5.469565
   1.84475      5.588845
   1.87678      5.688641
   1.90880      5.756160
   1.94083      5.780045
   1.94083      5.780045
   1.97569      5.785321
   2.01056      5.800553
   2.04542      5.827502
   2.08029      5.868536
   2.11515      5.926883
   2.15002      6.008268
   2.18488      6.119562
   2.21975      6.268344
   2.25461      6.303902
   2.28947      6.339193
   2.32434      6.397501
   2.35920      6.418393
   2.35920      6.418393
   2.39618      6.437038
   2.43316      6.448977
   2.47014      6.379605
   2.50712      6.286389
   2.54410      6.199713
   2.58108      6.128766
   2.61806      6.079407
   2.65504      6.061668
 
# Band-Index:   72
   2.65504      6.061668
   2.61806      6.079408
   2.58108      6.128769
   2.54410      6.199717
   2.50712      6.286393
   2.47014      6.379608
   2.43316      6.448980
   2.39618      6.437047
   2.35920      6.418405
   2.35920      6.418405
   2.32434      6.402208
   2.28947      6.389501
   2.25461      6.406085
   2.21975      6.354412
   2.18488      6.472848
   2.15002      6.614202
   2.11515      6.695394
   2.08029      6.762302
   2.04542      6.807100
   2.01056      6.839133
   1.97569      6.864255
   1.94083      6.874664
   1.94083      6.874601
   1.90880      6.758449
   1.87678      6.560471
   1.84475      6.355239
   1.81273      6.160485
   1.78070      5.988204
   1.74868      5.849126
   1.71665      5.753877
   1.68463      5.708215
   1.65260      5.710544
   1.62058      5.749038
   1.58855      5.809562
   1.55653      5.878399
   1.52450      5.943961
   1.49247      5.998611
   1.46045      6.034177
   1.42842      6.046557
   1.42842      6.046557
   1.39539      6.034782
   1.36237      6.001599
   1.32934      5.951425
   1.29631      5.889112
   1.26328      5.822071
   1.23025      5.756625
   1.19722      5.703740
   1.16419      5.672568
   1.13116      5.674482
   1.09813      5.715424
   1.06510      5.791337
   1.03207      5.896742
   0.99904      6.006526
   0.96601      6.120441
   0.93298      6.221777
   0.89995      6.296855
   0.86692      6.333006
   0.83389      6.328986
   0.80086      6.301646
   0.80086      6.301647
   0.75902      6.417977
   0.71719      6.298529
   0.67535      6.171573
   0.63351      6.090190
   0.59167      6.061668
   0.59167      6.061668
   0.55880      6.047050
   0.52593      6.006782
   0.49306      6.074287
   0.46019      6.172389
   0.42732      6.261126
   0.39445      6.344759
   0.36158      6.259757
   0.32871      6.193441
   0.29584      6.147278
   0.26297      6.051540
   0.23009      5.991920
   0.19722      5.964256
   0.16435      5.961885
   0.13148      5.975313
   0.09861      5.996854
   0.06574      6.020223
   0.03287      6.039036
   0.00000      6.046557
 
# Band-Index:   73
   0.00000      6.046557
   0.03287      6.049395
   0.06574      6.057629
   0.09861      6.069619
   0.13148      6.084431
   0.16435      6.099899
   0.19722      6.112942
   0.23009      6.124325
   0.26297      6.136535
   0.29584      6.156130
   0.32871      6.193449
   0.36158      6.259765
   0.39445      6.362716
   0.42732      6.501125
   0.46019      6.666239
   0.49306      6.849125
   0.52593      7.044861
   0.55880      7.251438
   0.59167      7.440825
   0.59167      7.442220
   0.63351      7.385133
   0.67535      7.131724
   0.71719      6.867103
   0.75902      6.664704
   0.80086      6.564044
   0.80086      6.564044
   0.83389      6.438829
   0.86692      6.385336
   0.89995      6.494712
   0.93298      6.366593
   0.96601      6.223139
   0.99904      6.078267
   1.03207      5.932101
   1.06510      5.962486
   1.09813      6.051758
   1.13116      6.139854
   1.16419      6.132830
   1.19722      6.125381
   1.23025      6.114821
   1.26328      6.100724
   1.29631      6.085265
   1.32934      6.070213
   1.36237      6.057722
   1.39539      6.049393
   1.42842      6.046557
   1.42842      6.046557
   1.46045      6.051809
   1.49247      6.067700
   1.52450      6.093560
   1.55653      6.129593
   1.58855      6.170789
   1.62058      6.210926
   1.65260      6.239010
   1.68463      6.254459
   1.71665      6.282966
   1.74868      6.349389
   1.78070      6.453752
   1.81273      6.579462
   1.84475      6.706439
   1.87678      6.814776
   1.90880      6.886906
   1.94083      6.911560
   1.94083      6.911560
   1.97569      6.908109
   2.01056      6.891463
   2.04542      6.857360
   2.08029      6.819874
   2.11515      6.754806
   2.15002      6.615002
   2.18488      6.529855
   2.21975      6.455994
   2.25461      6.454597
   2.28947      6.647893
   2.32434      6.722788
   2.35920      6.741748
   2.35920      6.741750
   2.39618      6.681599
   2.43316      6.639457
   2.47014      6.723111
   2.50712      6.873690
   2.54410      7.052770
   2.58108      7.242597
   2.61806      7.407209
   2.65504      7.447046
 
# Band-Index:   74
   2.65504      7.458330
   2.61806      7.410427
   2.58108      7.245846
   2.54410      7.052995
   2.50712      6.873708
   2.47014      6.723124
   2.43316      6.639467
   2.39618      6.681619
   2.35920      6.741962
   2.35920      6.741786
   2.32434      6.773721
   2.28947      6.781015
   2.25461      6.775133
   2.21975      6.769187
   2.18488      6.768883
   2.15002      6.776407
   2.11515      6.792544
   2.08029      6.872075
   2.04542      6.910950
   2.01056      6.914786
   1.97569      6.911969
   1.94083      6.912997
   1.94083      6.912928
   1.90880      6.886918
   1.87678      6.814790
   1.84475      6.706440
   1.81273      6.579463
   1.78070      6.453753
   1.74868      6.349390
   1.71665      6.282967
   1.68463      6.254461
   1.65260      6.239011
   1.62058      6.210927
   1.58855      6.170790
   1.55653      6.129594
   1.52450      6.093560
   1.49247      6.067700
   1.46045      6.051810
   1.42842      6.046571
   1.42842      6.046571
   1.39539      6.053474
   1.36237      6.074412
   1.32934      6.109462
   1.29631      6.157921
   1.26328      6.219304
   1.23025      6.293770
   1.19722      6.379648
   1.16419      6.288228
   1.13116      6.161391
   1.09813      6.150572
   1.06510      6.171380
   1.03207      6.208996
   0.99904      6.270710
   0.96601      6.357002
   0.93298      6.456079
   0.89995      6.508525
   0.86692      6.648297
   0.83389      6.785369
   0.80086      6.760349
   0.80086      6.760372
   0.75902      6.754996
   0.71719      6.968839
   0.67535      7.194581
   0.63351      7.400661
   0.59167      7.444685
   0.59167      7.449712
   0.55880      7.252663
   0.52593      7.044880
   0.49306      6.849136
   0.46019      6.666246
   0.42732      6.501132
   0.39445      6.362723
   0.36158      6.427461
   0.32871      6.278056
   0.29584      6.156138
   0.26297      6.136543
   0.23009      6.124333
   0.19722      6.112950
   0.16435      6.099908
   0.13148      6.084440
   0.09861      6.069628
   0.06574      6.057638
   0.03287      6.049404
   0.00000      6.046571
 
# Band-Index:   75
   0.00000      6.204880
   0.03287      6.213629
   0.06574      6.237443
   0.09861      6.272721
   0.13148      6.317726
   0.16435      6.372785
   0.19722      6.437247
   0.23009      6.513009
   0.26297      6.598338
   0.29584      6.604780
   0.32871      6.512915
   0.36158      6.439121
   0.39445      6.623825
   0.42732      6.826028
   0.46019      7.039711
   0.49306      7.259550
   0.52593      7.455034
   0.55880      7.514617
   0.59167      7.506371
   0.59167      7.506176
   0.63351      7.417652
   0.67535      7.317299
   0.71719      7.218605
   0.75902      7.080961
   0.80086      6.917895
   0.80086      6.918263
   0.83389      6.872576
   0.86692      6.754552
   0.89995      6.683405
   0.93298      6.826940
   0.96601      6.794895
   0.99904      6.719891
   1.03207      6.666138
   1.06510      6.634264
   1.09813      6.621097
   1.13116      6.581618
   1.16419      6.475366
   1.19722      6.437817
   1.23025      6.498512
   1.26328      6.418935
   1.29631      6.346353
   1.32934      6.286553
   1.36237      6.242250
   1.39539      6.214212
   1.42842      6.204880
   1.42842      6.204880
   1.46045      6.213863
   1.49247      6.240299
   1.52450      6.282344
   1.55653      6.336536
   1.58855      6.397770
   1.62058      6.455436
   1.65260      6.501652
   1.68463      6.552263
   1.71665      6.620833
   1.74868      6.703029
   1.78070      6.790192
   1.81273      6.875424
   1.84475      6.953272
   1.87678      7.019393
   1.90880      7.066945
   1.94083      7.084533
   1.94083      7.084540
   1.97569      7.088384
   2.01056      7.080965
   2.04542      7.007266
   2.08029      6.940117
   2.11515      6.929408
   2.15002      6.923686
   2.18488      6.911802
   2.21975      6.890281
   2.25461      6.858984
   2.28947      6.844553
   2.32434      6.894765
   2.35920      6.890803
   2.35920      6.890907
   2.39618      6.959539
   2.43316      7.060355
   2.47014      7.144593
   2.50712      7.216464
   2.54410      7.285922
   2.58108      7.354810
   2.61806      7.428400
   2.65504      7.524266
 
# Band-Index:   76
   2.65504      7.536582
   2.61806      7.527759
   2.58108      7.376952
   2.54410      7.290004
   2.50712      7.224392
   2.47014      7.183666
   2.43316      7.068373
   2.39618      6.960286
   2.35920      6.894636
   2.35920      6.900680
   2.32434      6.934748
   2.28947      6.946728
   2.25461      6.976680
   2.21975      7.020577
   2.18488      7.100810
   2.15002      7.088612
   2.11515      7.104427
   2.08029      7.133124
   2.04542      7.116988
   2.01056      7.100671
   1.97569      7.091454
   1.94083      7.104892
   1.94083      7.087121
   1.90880      7.068423
   1.87678      7.020241
   1.84475      6.953365
   1.81273      6.875503
   1.78070      6.790222
   1.74868      6.703096
   1.71665      6.620941
   1.68463      6.552398
   1.65260      6.502231
   1.62058      6.455474
   1.58855      6.397776
   1.55653      6.336537
   1.52450      6.282344
   1.49247      6.240300
   1.46045      6.213864
   1.42842      6.204881
   1.42842      6.204881
   1.39539      6.214578
   1.36237      6.242617
   1.32934      6.288627
   1.29631      6.352894
   1.26328      6.433426
   1.23025      6.551306
   1.19722      6.612337
   1.16419      6.608795
   1.13116      6.618625
   1.09813      6.697141
   1.06510      6.819123
   1.03207      6.945942
   0.99904      7.078659
   0.96601      7.039868
   0.93298      6.885807
   0.89995      6.983859
   0.86692      7.090317
   0.83389      6.936173
   0.80086      6.988582
   0.80086      6.989247
   0.75902      7.122707
   0.71719      7.293615
   0.67535      7.343633
   0.63351      7.436717
   0.59167      7.525078
   0.59167      7.532133
   0.55880      7.543004
   0.52593      7.488930
   0.49306      7.422421
   0.46019      7.270815
   0.42732      7.149854
   0.39445      7.028448
   0.36158      6.910936
   0.32871      6.798198
   0.29584      6.693959
   0.26297      6.707607
   0.23009      6.671416
   0.19722      6.550043
   0.16435      6.447881
   0.13148      6.361432
   0.09861      6.294240
   0.06574      6.244782
   0.03287      6.214844
   0.00000      6.204881
