#K-Path(1/A) Energy-Level(eV)
# NKPTS & NBANDS: 140  36
# Band-Index    1
   0.00000    -15.648638
   0.01340    -15.648702
   0.02681    -15.648694
   0.04021    -15.648660
   0.05362    -15.648654
   0.06702    -15.648657
   0.08042    -15.648659
   0.09383    -15.648661
   0.10723    -15.648657
   0.12064    -15.648658
   0.13404    -15.648684
   0.14744    -15.648656
   0.16085    -15.648658
   0.17425    -15.648660
   0.18766    -15.648663
   0.20106    -15.648616
   0.21446    -15.648618
   0.22787    -15.648631
   0.24127    -15.648630
   0.25468    -15.648630
   0.25468    -15.648630
   0.31075    -15.649288
   0.36682    -15.651561
   0.42289    -15.656168
   0.47896    -15.664354
   0.53503    -15.677257
   0.59110    -15.695129
   0.64718    -15.716867
   0.70325    -15.740609
   0.75932    -15.764601
   0.81539    -15.787525
   0.87146    -15.808372
   0.92753    -15.826711
   0.98361    -15.842158
   1.03968    -15.854626
   1.09575    -15.864202
   1.15182    -15.871080
   1.20789    -15.875530
   1.26396    -15.877970
   1.32003    -15.878890
   1.32003    -15.878890
   1.34947    -15.878907
   1.37891    -15.878720
   1.40834    -15.878396
   1.43778    -15.877998
   1.46722    -15.877560
   1.49665    -15.877151
   1.52609    -15.876804
   1.55553    -15.876552
   1.58496    -15.876350
   1.61440    -15.876317
   1.64384    -15.876375
   1.67327    -15.876482
   1.70271    -15.876644
   1.73215    -15.876852
   1.76158    -15.877059
   1.79102    -15.877256
   1.82046    -15.877408
   1.84989    -15.877504
   1.87933    -15.877537
   1.87933    -15.877537
   1.92890    -15.875986
   1.97847    -15.871308
   2.02804    -15.863605
   2.07761    -15.852950
   2.12718    -15.839526
   2.17675    -15.823490
   2.22632    -15.805170
   2.27589    -15.784968
   2.32546    -15.763387
   2.37503    -15.741221
   2.42460    -15.719440
   2.47417    -15.699364
   2.52374    -15.682280
   2.57331    -15.669109
   2.62288    -15.659987
   2.67245    -15.654244
   2.72202    -15.650923
   2.77159    -15.649204
   2.82116    -15.648638
   2.82116    -15.648638
   2.87863    -15.649410
   2.93610    -15.651797
   2.99357    -15.656708
   3.05105    -15.665436
   3.10852    -15.679237
   3.16599    -15.698182
   3.22346    -15.720932
   3.28094    -15.745455
   3.33841    -15.769944
   3.39588    -15.792988
   3.45335    -15.813713
   3.51082    -15.831619
   3.56830    -15.846536
   3.62577    -15.858331
   3.68324    -15.867088
   3.74071    -15.873134
   3.79819    -15.876802
   3.85566    -15.878562
   3.91313    -15.878942
   3.91313    -15.878942
   3.94117    -15.878765
   3.96920    -15.878462
   3.99724    -15.878070
   4.02527    -15.877676
   4.05331    -15.877295
   4.08135    -15.876941
   4.10938    -15.876638
   4.13742    -15.876436
   4.16545    -15.876337
   4.19349    -15.876330
   4.22152    -15.876400
   4.24956    -15.876538
   4.27760    -15.876719
   4.30563    -15.876944
   4.33367    -15.877153
   4.36170    -15.877319
   4.38974    -15.877472
   4.41777    -15.877563
   4.44581    -15.877582
   4.44581    -15.877582
   4.49598    -15.876014
   4.54615    -15.871343
   4.59632    -15.863617
   4.64649    -15.852945
   4.69666    -15.839502
   4.74683    -15.823475
   4.79700    -15.805154
   4.84717    -15.784937
   4.89734    -15.763372
   4.94751    -15.741209
   4.99768    -15.719456
   5.04785    -15.699362
   5.09803    -15.682307
   5.14820    -15.669121
   5.19837    -15.660007
   5.24854    -15.654243
   5.29871    -15.650910
   5.34888    -15.649202
   5.39905    -15.648638
 
# Band-Index    2
   5.39905    -15.478624
   5.34888    -15.481169
   5.29871    -15.488300
   5.24854    -15.499055
   5.19837    -15.511635
   5.14820    -15.524006
   5.09803    -15.534251
   5.04785    -15.541242
   4.99768    -15.545143
   4.94751    -15.546524
   4.89734    -15.546145
   4.84717    -15.544673
   4.79700    -15.542616
   4.74683    -15.540265
   4.69666    -15.537975
   4.64649    -15.535910
   4.59632    -15.534200
   4.54615    -15.532940
   4.49598    -15.532138
   4.44581    -15.531861
   4.44581    -15.531861
   4.41777    -15.531850
   4.38974    -15.531806
   4.36170    -15.531732
   4.33367    -15.531626
   4.30563    -15.531479
   4.27760    -15.531277
   4.24956    -15.531074
   4.22152    -15.530867
   4.19349    -15.530602
   4.16545    -15.530319
   4.13742    -15.529990
   4.10938    -15.529638
   4.08135    -15.529324
   4.05331    -15.529003
   4.02527    -15.528691
   3.99724    -15.528405
   3.96920    -15.528214
   3.94117    -15.528062
   3.91313    -15.528002
   3.91313    -15.528002
   3.85566    -15.528146
   3.79819    -15.528790
   3.74071    -15.529991
   3.68324    -15.531796
   3.62577    -15.534063
   3.56830    -15.536720
   3.51082    -15.539603
   3.45335    -15.542533
   3.39588    -15.545187
   3.33841    -15.547137
   3.28094    -15.547772
   3.22346    -15.546296
   3.16599    -15.541591
   3.10852    -15.532749
   3.05105    -15.519931
   2.99357    -15.505174
   2.93610    -15.491520
   2.87863    -15.482058
   2.82116    -15.478624
   2.82116    -15.478624
   2.77159    -15.481165
   2.72202    -15.488318
   2.67245    -15.499058
   2.62288    -15.511643
   2.57331    -15.523977
   2.52374    -15.534217
   2.47417    -15.541265
   2.42460    -15.545151
   2.37503    -15.546535
   2.32546    -15.546148
   2.27589    -15.544699
   2.22632    -15.542614
   2.17675    -15.540273
   2.12718    -15.537969
   2.07761    -15.535888
   2.02804    -15.534164
   1.97847    -15.532885
   1.92890    -15.532102
   1.87933    -15.531832
   1.87933    -15.531832
   1.84989    -15.531795
   1.82046    -15.531751
   1.79102    -15.531660
   1.76158    -15.531541
   1.73215    -15.531390
   1.70271    -15.531199
   1.67327    -15.530988
   1.64384    -15.530744
   1.61440    -15.530450
   1.58496    -15.530135
   1.55553    -15.529829
   1.52609    -15.529468
   1.49665    -15.529108
   1.46722    -15.528790
   1.43778    -15.528519
   1.40834    -15.528278
   1.37891    -15.528093
   1.34947    -15.528001
   1.32003    -15.528036
   1.32003    -15.528036
   1.26396    -15.528418
   1.20789    -15.529280
   1.15182    -15.530643
   1.09575    -15.532509
   1.03968    -15.534850
   0.98361    -15.537525
   0.92753    -15.540390
   0.87146    -15.543203
   0.81539    -15.545675
   0.75932    -15.547361
   0.70325    -15.547656
   0.64718    -15.545722
   0.59110    -15.540539
   0.53503    -15.531359
   0.47896    -15.518533
   0.42289    -15.504025
   0.36682    -15.490924
   0.31075    -15.481868
   0.25468    -15.478683
   0.25468    -15.478683
   0.24127    -15.478683
   0.22787    -15.478696
   0.21446    -15.478687
   0.20106    -15.478687
   0.18766    -15.478709
   0.17425    -15.478683
   0.16085    -15.478673
   0.14744    -15.478673
   0.13404    -15.478675
   0.12064    -15.478668
   0.10723    -15.478668
   0.09383    -15.478678
   0.08042    -15.478678
   0.06702    -15.478677
   0.05362    -15.478675
   0.04021    -15.478634
   0.02681    -15.478636
   0.01340    -15.478639
   0.00000    -15.478624
 
# Band-Index    3
   0.00000    -15.478622
   0.01340    -15.478637
   0.02681    -15.478634
   0.04021    -15.478632
   0.05362    -15.478673
   0.06702    -15.478674
   0.08042    -15.478675
   0.09383    -15.478676
   0.10723    -15.478666
   0.12064    -15.478666
   0.13404    -15.478673
   0.14744    -15.478671
   0.16085    -15.478671
   0.17425    -15.478681
   0.18766    -15.478706
   0.20106    -15.478685
   0.21446    -15.478685
   0.22787    -15.478694
   0.24127    -15.478681
   0.25468    -15.478681
   0.25468    -15.478681
   0.31075    -15.477811
   0.36682    -15.475290
   0.42289    -15.471120
   0.47896    -15.465712
   0.53503    -15.459237
   0.59110    -15.452130
   0.64718    -15.444722
   0.70325    -15.437602
   0.75932    -15.431123
   0.81539    -15.425697
   0.87146    -15.421474
   0.92753    -15.418583
   0.98361    -15.416924
   1.03968    -15.416348
   1.09575    -15.416607
   1.15182    -15.417391
   1.20789    -15.418372
   1.26396    -15.419226
   1.32003    -15.419713
   1.32003    -15.419714
   1.34947    -15.419723
   1.37891    -15.419542
   1.40834    -15.419157
   1.43778    -15.418558
   1.46722    -15.417704
   1.49665    -15.416642
   1.52609    -15.415365
   1.55553    -15.413912
   1.58496    -15.412277
   1.61440    -15.410630
   1.64384    -15.408894
   1.67327    -15.407148
   1.70271    -15.405452
   1.73215    -15.403901
   1.76158    -15.402559
   1.79102    -15.401443
   1.82046    -15.400628
   1.84989    -15.400077
   1.87933    -15.399863
   1.87933    -15.399863
   1.92890    -15.400213
   1.97847    -15.401180
   2.02804    -15.402807
   2.07761    -15.405151
   2.12718    -15.408338
   2.17675    -15.412383
   2.22632    -15.417288
   2.27589    -15.422993
   2.32546    -15.429339
   2.37503    -15.436138
   2.42460    -15.443136
   2.47417    -15.450161
   2.52374    -15.456900
   2.57331    -15.463009
   2.62288    -15.468413
   2.67245    -15.472815
   2.72202    -15.476067
   2.77159    -15.478022
   2.82116    -15.478622
   2.82116    -15.478622
   2.87863    -15.477771
   2.93610    -15.475091
   2.99357    -15.470818
   3.05105    -15.465086
   3.10852    -15.458366
   3.16599    -15.450998
   3.22346    -15.443481
   3.28094    -15.436257
   3.33841    -15.429829
   3.39588    -15.424535
   3.45335    -15.420581
   3.51082    -15.417946
   3.56830    -15.416656
   3.62577    -15.416419
   3.68324    -15.416889
   3.74071    -15.417805
   3.79819    -15.418781
   3.85566    -15.419529
   3.91313    -15.419762
   3.91313    -15.419762
   3.94117    -15.419588
   3.96920    -15.419245
   3.99724    -15.418687
   4.02527    -15.417963
   4.05331    -15.417032
   4.08135    -15.415890
   4.10938    -15.414550
   4.13742    -15.413081
   4.16545    -15.411508
   4.19349    -15.409865
   4.22152    -15.408177
   4.24956    -15.406518
   4.27760    -15.404966
   4.30563    -15.403581
   4.33367    -15.402334
   4.36170    -15.401335
   4.38974    -15.400602
   4.41777    -15.400165
   4.44581    -15.400003
   4.44581    -15.400003
   4.49598    -15.400303
   4.54615    -15.401235
   4.59632    -15.402839
   4.64649    -15.405163
   4.69666    -15.408348
   4.74683    -15.412378
   4.79700    -15.417266
   4.84717    -15.422944
   4.89734    -15.429269
   4.94751    -15.436107
   4.99768    -15.443156
   5.04785    -15.450210
   5.09803    -15.456915
   5.14820    -15.463047
   5.19837    -15.468420
   5.24854    -15.472807
   5.29871    -15.476043
   5.34888    -15.478025
   5.39905    -15.478622
 
# Band-Index    4
   5.39905    -15.312449
   5.34888    -15.313709
   5.29871    -15.317057
   5.24854    -15.321784
   5.19837    -15.327083
   5.14820    -15.332452
   5.09803    -15.337599
   5.04785    -15.342428
   4.99768    -15.346945
   4.94751    -15.351177
   4.89734    -15.355053
   4.84717    -15.358612
   4.79700    -15.361816
   4.74683    -15.364616
   4.69666    -15.367002
   4.64649    -15.369048
   4.59632    -15.370653
   4.54615    -15.371809
   4.49598    -15.372495
   4.44581    -15.372731
   4.44581    -15.372731
   4.41777    -15.372627
   4.38974    -15.372236
   4.36170    -15.371627
   4.33367    -15.370771
   4.30563    -15.369699
   4.27760    -15.368376
   4.24956    -15.366843
   4.22152    -15.365101
   4.19349    -15.363158
   4.16545    -15.361030
   4.13742    -15.358747
   4.10938    -15.356301
   4.08135    -15.353747
   4.05331    -15.351127
   4.02527    -15.348451
   3.99724    -15.345799
   3.96920    -15.343338
   3.94117    -15.341264
   3.91313    -15.340125
   3.91313    -15.340125
   3.85566    -15.341877
   3.79819    -15.346001
   3.74071    -15.350022
   3.68324    -15.353367
   3.62577    -15.355839
   3.56830    -15.357317
   3.51082    -15.357795
   3.45335    -15.357317
   3.39588    -15.355865
   3.33841    -15.353490
   3.28094    -15.350291
   3.22346    -15.346329
   3.16599    -15.341651
   3.10852    -15.336304
   3.05105    -15.330448
   2.99357    -15.324333
   2.93610    -15.318494
   2.87863    -15.314136
   2.82116    -15.312449
   2.82116    -15.312449
   2.77159    -15.313718
   2.72202    -15.317079
   2.67245    -15.321776
   2.62288    -15.327075
   2.57331    -15.332395
   2.52374    -15.337594
   2.47417    -15.342416
   2.42460    -15.346960
   2.37503    -15.351166
   2.32546    -15.355050
   2.27589    -15.358662
   2.22632    -15.361852
   2.17675    -15.364658
   2.12718    -15.367085
   2.07761    -15.369075
   2.02804    -15.370636
   1.97847    -15.371754
   1.92890    -15.372446
   1.87933    -15.372603
   1.87933    -15.372603
   1.84989    -15.372469
   1.82046    -15.372074
   1.79102    -15.371416
   1.76158    -15.370497
   1.73215    -15.369305
   1.70271    -15.367887
   1.67327    -15.366202
   1.64384    -15.364315
   1.61440    -15.362187
   1.58496    -15.359863
   1.55553    -15.357402
   1.52609    -15.354728
   1.49665    -15.351994
   1.46722    -15.349209
   1.43778    -15.346432
   1.40834    -15.343782
   1.37891    -15.341507
   1.34947    -15.340133
   1.32003    -15.340345
   1.32003    -15.340345
   1.26396    -15.343648
   1.20789    -15.347698
   1.15182    -15.351374
   1.09575    -15.354327
   1.03968    -15.356396
   0.98361    -15.357575
   0.92753    -15.357781
   0.87146    -15.357007
   0.81539    -15.355381
   0.75932    -15.352840
   0.70325    -15.349564
   0.64718    -15.345572
   0.59110    -15.340921
   0.53503    -15.335654
   0.47896    -15.329877
   0.42289    -15.323777
   0.36682    -15.318243
   0.31075    -15.314052
   0.25468    -15.312513
   0.25468    -15.312513
   0.24127    -15.312513
   0.22787    -15.312521
   0.21446    -15.312493
   0.20106    -15.312493
   0.18766    -15.312517
   0.17425    -15.312494
   0.16085    -15.312506
   0.14744    -15.312505
   0.13404    -15.312509
   0.12064    -15.312487
   0.10723    -15.312487
   0.09383    -15.312494
   0.08042    -15.312493
   0.06702    -15.312491
   0.05362    -15.312489
   0.04021    -15.312442
   0.02681    -15.312458
   0.01340    -15.312494
   0.00000    -15.312449
 
# Band-Index    5
   0.00000    -15.312448
   0.01340    -15.312493
   0.02681    -15.312457
   0.04021    -15.312440
   0.05362    -15.312488
   0.06702    -15.312490
   0.08042    -15.312491
   0.09383    -15.312493
   0.10723    -15.312485
   0.12064    -15.312486
   0.13404    -15.312508
   0.14744    -15.312503
   0.16085    -15.312504
   0.17425    -15.312492
   0.18766    -15.312515
   0.20106    -15.312492
   0.21446    -15.312492
   0.22787    -15.312519
   0.24127    -15.312511
   0.25468    -15.312511
   0.25468    -15.312511
   0.31075    -15.312541
   0.36682    -15.312628
   0.42289    -15.312714
   0.47896    -15.312884
   0.53503    -15.313010
   0.59110    -15.313080
   0.64718    -15.313057
   0.70325    -15.312904
   0.75932    -15.312635
   0.81539    -15.312319
   0.87146    -15.312018
   0.92753    -15.312001
   0.98361    -15.312387
   1.03968    -15.313497
   1.09575    -15.315462
   1.15182    -15.318297
   1.20789    -15.321956
   1.26396    -15.326059
   1.32003    -15.329414
   1.32003    -15.329414
   1.34947    -15.329553
   1.37891    -15.328163
   1.40834    -15.325856
   1.43778    -15.323127
   1.46722    -15.320205
   1.49665    -15.317216
   1.52609    -15.314218
   1.55553    -15.311339
   1.58496    -15.308488
   1.61440    -15.305849
   1.64384    -15.303403
   1.67327    -15.301100
   1.70271    -15.299059
   1.73215    -15.297262
   1.76158    -15.295814
   1.79102    -15.294629
   1.82046    -15.293776
   1.84989    -15.293240
   1.87933    -15.293087
   1.87933    -15.293087
   1.92890    -15.293446
   1.97847    -15.294540
   2.02804    -15.296268
   2.07761    -15.298465
   2.12718    -15.300949
   2.17675    -15.303457
   2.22632    -15.305806
   2.27589    -15.307857
   2.32546    -15.309534
   2.37503    -15.310825
   2.42460    -15.311726
   2.47417    -15.312318
   2.52374    -15.312630
   2.57331    -15.312736
   2.62288    -15.312718
   2.67245    -15.312657
   2.72202    -15.312591
   2.77159    -15.312501
   2.82116    -15.312448
   2.82116    -15.312448
   2.87863    -15.312533
   2.93610    -15.312607
   2.99357    -15.312769
   3.05105    -15.312882
   3.10852    -15.313001
   3.16599    -15.313060
   3.22346    -15.313029
   3.28094    -15.312855
   3.33841    -15.312565
   3.39588    -15.312227
   3.45335    -15.311986
   3.51082    -15.312050
   3.56830    -15.312690
   3.62577    -15.314116
   3.68324    -15.316455
   3.74071    -15.319719
   3.79819    -15.323671
   3.85566    -15.327816
   3.91313    -15.329654
   3.91313    -15.329654
   3.94117    -15.328421
   3.96920    -15.326294
   3.99724    -15.323710
   4.02527    -15.321014
   4.05331    -15.318172
   4.08135    -15.315326
   4.10938    -15.312510
   4.13742    -15.309835
   4.16545    -15.307229
   4.19349    -15.304755
   4.22152    -15.302469
   4.24956    -15.300361
   4.27760    -15.298510
   4.30563    -15.296906
   4.33367    -15.295582
   4.36170    -15.294482
   4.38974    -15.293740
   4.41777    -15.293324
   4.44581    -15.293159
   4.44581    -15.293159
   4.49598    -15.293545
   4.54615    -15.294619
   4.59632    -15.296283
   4.64649    -15.298437
   4.69666    -15.300886
   4.74683    -15.303384
   4.79700    -15.305747
   4.84717    -15.307833
   4.89734    -15.309529
   4.94751    -15.310863
   4.99768    -15.311729
   5.04785    -15.312287
   5.09803    -15.312629
   5.14820    -15.312748
   5.19837    -15.312755
   5.24854    -15.312673
   5.29871    -15.312586
   5.34888    -15.312508
   5.39905    -15.312448
 
# Band-Index    6
   5.39905    -14.450021
   5.34888    -14.440579
   5.29871    -14.412798
   5.24854    -14.368277
   5.19837    -14.309304
   5.14820    -14.238789
   5.09803    -14.161365
   5.04785    -14.091237
   4.99768    -14.063585
   4.94751    -14.065543
   4.89734    -14.074160
   4.84717    -14.084326
   4.79700    -14.094542
   4.74683    -14.104098
   4.69666    -14.112643
   4.64649    -14.119973
   4.59632    -14.125845
   4.54615    -14.130126
   4.49598    -14.132713
   4.44581    -14.133588
   4.44581    -14.133588
   4.41777    -14.133473
   4.38974    -14.133068
   4.36170    -14.132466
   4.33367    -14.131642
   4.30563    -14.130634
   4.27760    -14.129458
   4.24956    -14.128187
   4.22152    -14.126861
   4.19349    -14.125508
   4.16545    -14.124199
   4.13742    -14.122960
   4.10938    -14.121819
   4.08135    -14.120843
   4.05331    -14.120041
   4.02527    -14.119407
   3.99724    -14.118928
   3.96920    -14.118655
   3.94117    -14.118506
   3.91313    -14.118485
   3.91313    -14.118485
   3.85566    -14.118470
   3.79819    -14.118279
   3.74071    -14.117439
   3.68324    -14.115514
   3.62577    -14.112196
   3.56830    -14.107282
   3.51082    -14.100709
   3.45335    -14.092591
   3.39588    -14.083173
   3.33841    -14.073066
   3.28094    -14.063750
   3.22346    -14.060430
   3.16599    -14.091325
   3.10852    -14.175222
   3.05105    -14.264059
   2.99357    -14.340887
   2.93610    -14.399934
   2.87863    -14.437247
   2.82116    -14.450021
   2.82116    -14.450021
   2.77159    -14.440579
   2.72202    -14.412802
   2.67245    -14.368283
   2.62288    -14.309320
   2.57331    -14.238807
   2.52374    -14.161389
   2.47417    -14.091240
   2.42460    -14.063562
   2.37503    -14.065515
   2.32546    -14.074139
   2.27589    -14.084348
   2.22632    -14.094550
   2.17675    -14.104127
   2.12718    -14.112700
   2.07761    -14.119985
   2.02804    -14.125821
   1.97847    -14.130075
   1.92890    -14.132669
   1.87933    -14.133482
   1.87933    -14.133482
   1.84989    -14.133344
   1.82046    -14.132931
   1.79102    -14.132274
   1.76158    -14.131387
   1.73215    -14.130288
   1.70271    -14.129048
   1.67327    -14.127689
   1.64384    -14.126297
   1.61440    -14.124882
   1.58496    -14.123521
   1.55553    -14.122304
   1.52609    -14.121181
   1.49665    -14.120275
   1.46722    -14.119561
   1.43778    -14.119043
   1.40834    -14.118698
   1.37891    -14.118517
   1.34947    -14.118451
   1.32003    -14.118483
   1.32003    -14.118483
   1.26396    -14.118454
   1.20789    -14.118019
   1.15182    -14.116800
   1.09575    -14.114449
   1.03968    -14.110675
   0.98361    -14.105388
   0.92753    -14.098530
   0.87146    -14.090187
   0.81539    -14.080784
   0.75932    -14.070920
   0.70325    -14.062390
   0.64718    -14.061835
   0.59110    -14.101390
   0.53503    -14.186045
   0.47896    -14.271830
   0.42289    -14.345468
   0.36682    -14.401888
   0.31075    -14.437457
   0.25468    -14.449634
   0.25468    -14.449634
   0.24127    -14.449637
   0.22787    -14.449645
   0.21446    -14.449655
   0.20106    -14.449672
   0.18766    -14.449699
   0.17425    -14.449725
   0.16085    -14.449754
   0.14744    -14.449786
   0.13404    -14.449818
   0.12064    -14.449850
   0.10723    -14.449882
   0.09383    -14.449914
   0.08042    -14.449942
   0.06702    -14.449968
   0.05362    -14.449990
   0.04021    -14.450006
   0.02681    -14.450019
   0.01340    -14.450026
   0.00000    -14.450021
 
# Band-Index    7
   0.00000    -13.984029
   0.01340    -13.984047
   0.02681    -13.984037
   0.04021    -13.984036
   0.05362    -13.984075
   0.06702    -13.984077
   0.08042    -13.984078
   0.09383    -13.984079
   0.10723    -13.984082
   0.12064    -13.984082
   0.13404    -13.984084
   0.14744    -13.984085
   0.16085    -13.984085
   0.17425    -13.984081
   0.18766    -13.984096
   0.20106    -13.984092
   0.21446    -13.984092
   0.22787    -13.984096
   0.24127    -13.984093
   0.25468    -13.984093
   0.25468    -13.984093
   0.31075    -13.985020
   0.36682    -13.987790
   0.42289    -13.992161
   0.47896    -13.997771
   0.53503    -14.002568
   0.59110    -13.997150
   0.64718    -13.956286
   0.70325    -13.950097
   0.75932    -13.945295
   0.81539    -13.941735
   0.87146    -13.939568
   0.92753    -13.938474
   0.98361    -13.937638
   1.03968    -13.936676
   1.09575    -13.935584
   1.15182    -13.934555
   1.20789    -13.933891
   1.26396    -13.933643
   1.32003    -13.933642
   1.32003    -13.933642
   1.34947    -13.933601
   1.37891    -13.933609
   1.40834    -13.933654
   1.43778    -13.933813
   1.46722    -13.934232
   1.49665    -13.935058
   1.52609    -13.936355
   1.55553    -13.938065
   1.58496    -13.939939
   1.61440    -13.941963
   1.64384    -13.943953
   1.67327    -13.945792
   1.70271    -13.947463
   1.73215    -13.948932
   1.76158    -13.950155
   1.79102    -13.951132
   1.82046    -13.951830
   1.84989    -13.952252
   1.87933    -13.952390
   1.87933    -13.952390
   1.92890    -13.952122
   1.97847    -13.951264
   2.02804    -13.949866
   2.07761    -13.947951
   2.12718    -13.945560
   2.17675    -13.942687
   2.22632    -13.939458
   2.27589    -13.936044
   2.32546    -13.936002
   2.37503    -13.943202
   2.42460    -13.951819
   2.47417    -13.995494
   2.52374    -14.004526
   2.57331    -14.000813
   2.62288    -13.995392
   2.67245    -13.990584
   2.72202    -13.986991
   2.77159    -13.984789
   2.82116    -13.984029
   2.82116    -13.984029
   2.87863    -13.985061
   2.93610    -13.988000
   2.99357    -13.992678
   3.05105    -13.998433
   3.10852    -14.003033
   3.16599    -13.993936
   3.22346    -13.954773
   3.28094    -13.949047
   3.33841    -13.944392
   3.39588    -13.941074
   3.45335    -13.939215
   3.51082    -13.938191
   3.56830    -13.937352
   3.62577    -13.936333
   3.68324    -13.935193
   3.74071    -13.934256
   3.79819    -13.933733
   3.85566    -13.933608
   3.91313    -13.933648
   3.91313    -13.933648
   3.94117    -13.933620
   3.96920    -13.933622
   3.99724    -13.933708
   4.02527    -13.934060
   4.05331    -13.934733
   4.08135    -13.935818
   4.10938    -13.937279
   4.13742    -13.939033
   4.16545    -13.940919
   4.19349    -13.942824
   4.22152    -13.944668
   4.24956    -13.946386
   4.27760    -13.947937
   4.30563    -13.949304
   4.33367    -13.950437
   4.36170    -13.951304
   4.38974    -13.951956
   4.41777    -13.952338
   4.44581    -13.952455
   4.44581    -13.952455
   4.49598    -13.952159
   4.54615    -13.951300
   4.59632    -13.949880
   4.64649    -13.947933
   4.69666    -13.945521
   4.74683    -13.942647
   4.79700    -13.939403
   4.84717    -13.935957
   4.89734    -13.935982
   4.94751    -13.943209
   4.99768    -13.951435
   5.04785    -13.995324
   5.09803    -14.004474
   5.14820    -14.000823
   5.19837    -13.995390
   5.24854    -13.990584
   5.29871    -13.986971
   5.34888    -13.984794
   5.39905    -13.984029
 
# Band-Index    8
   5.39905    -13.984029
   5.34888    -13.983495
   5.29871    -13.981685
   5.24854    -13.978707
   5.19837    -13.974661
   5.14820    -13.969629
   5.09803    -13.963822
   5.04785    -13.957321
   4.99768    -13.950377
   4.94751    -13.931981
   4.89734    -13.932766
   4.84717    -13.929041
   4.79700    -13.922561
   4.74683    -13.916815
   4.69666    -13.912038
   4.64649    -13.908321
   4.59632    -13.905694
   4.54615    -13.904026
   4.49598    -13.903111
   4.44581    -13.902802
   4.44581    -13.902802
   4.41777    -13.902983
   4.38974    -13.903444
   4.36170    -13.904252
   4.33367    -13.905403
   4.30563    -13.906752
   4.27760    -13.908300
   4.24956    -13.909977
   4.22152    -13.911727
   4.19349    -13.913429
   4.16545    -13.915000
   4.13742    -13.916309
   4.10938    -13.917189
   4.08135    -13.917565
   4.05331    -13.917271
   4.02527    -13.916289
   3.99724    -13.914724
   3.96920    -13.912803
   3.94117    -13.910685
   3.91313    -13.908829
   3.91313    -13.908829
   3.85566    -13.911364
   3.79819    -13.914851
   3.74071    -13.917403
   3.68324    -13.919122
   3.62577    -13.920541
   3.56830    -13.922068
   3.51082    -13.923850
   3.45335    -13.925671
   3.39588    -13.926702
   3.33841    -13.926468
   3.28094    -13.926426
   3.22346    -13.942176
   3.16599    -13.960405
   3.10852    -13.966462
   3.05105    -13.972126
   2.99357    -13.977074
   2.93610    -13.980854
   2.87863    -13.983262
   2.82116    -13.984029
   2.82116    -13.984029
   2.77159    -13.983495
   2.72202    -13.981700
   2.67245    -13.978703
   2.62288    -13.974637
   2.57331    -13.969615
   2.52374    -13.963826
   2.47417    -13.957331
   2.42460    -13.950358
   2.37503    -13.932190
   2.32546    -13.932867
   2.27589    -13.929054
   2.22632    -13.922587
   2.17675    -13.916871
   2.12718    -13.912089
   2.07761    -13.908348
   2.02804    -13.905680
   1.97847    -13.903948
   1.92890    -13.903006
   1.87933    -13.902720
   1.87933    -13.902720
   1.84989    -13.902895
   1.82046    -13.903482
   1.79102    -13.904401
   1.76158    -13.905643
   1.73215    -13.907097
   1.70271    -13.908805
   1.67327    -13.910603
   1.64384    -13.912448
   1.61440    -13.914153
   1.58496    -13.915662
   1.55553    -13.916879
   1.52609    -13.917498
   1.49665    -13.917456
   1.46722    -13.916645
   1.43778    -13.915164
   1.40834    -13.913189
   1.37891    -13.910993
   1.34947    -13.908938
   1.32003    -13.909292
   1.32003    -13.909292
   1.26396    -13.912978
   1.20789    -13.916013
   1.15182    -13.918143
   1.09575    -13.919631
   1.03968    -13.921001
   0.98361    -13.922611
   0.92753    -13.924419
   0.87146    -13.926017
   0.81539    -13.926721
   0.75932    -13.926256
   0.70325    -13.926980
   0.64718    -13.949827
   0.59110    -13.961308
   0.53503    -13.967202
   0.47896    -13.972660
   0.42289    -13.977339
   0.36682    -13.981039
   0.31075    -13.983309
   0.25468    -13.984093
   0.25468    -13.984093
   0.24127    -13.984093
   0.22787    -13.984096
   0.21446    -13.984092
   0.20106    -13.984092
   0.18766    -13.984096
   0.17425    -13.984081
   0.16085    -13.984085
   0.14744    -13.984085
   0.13404    -13.984084
   0.12064    -13.984082
   0.10723    -13.984082
   0.09383    -13.984079
   0.08042    -13.984078
   0.06702    -13.984077
   0.05362    -13.984075
   0.04021    -13.984035
   0.02681    -13.984037
   0.01340    -13.984047
   0.00000    -13.984029
 
# Band-Index    9
   0.00000    -13.903778
   0.01340    -13.903834
   0.02681    -13.903833
   0.04021    -13.903796
   0.05362    -13.903800
   0.06702    -13.903813
   0.08042    -13.903827
   0.09383    -13.903842
   0.10723    -13.903848
   0.12064    -13.903864
   0.13404    -13.903909
   0.14744    -13.903898
   0.16085    -13.903913
   0.17425    -13.903927
   0.18766    -13.903940
   0.20106    -13.903908
   0.21446    -13.903918
   0.22787    -13.903946
   0.24127    -13.903950
   0.25468    -13.903951
   0.25468    -13.903951
   0.31075    -13.903430
   0.36682    -13.901945
   0.42289    -13.899544
   0.47896    -13.896942
   0.53503    -13.898094
   0.59110    -13.901728
   0.64718    -13.894305
   0.70325    -13.879827
   0.75932    -13.880640
   0.81539    -13.882491
   0.87146    -13.884548
   0.92753    -13.886698
   0.98361    -13.888776
   1.03968    -13.890868
   1.09575    -13.893018
   1.15182    -13.895437
   1.20789    -13.898335
   1.26396    -13.901848
   1.32003    -13.905783
   1.32003    -13.905783
   1.34947    -13.906129
   1.37891    -13.903946
   1.40834    -13.901424
   1.43778    -13.898811
   1.46722    -13.896137
   1.49665    -13.893482
   1.52609    -13.890855
   1.55553    -13.888303
   1.58496    -13.885827
   1.61440    -13.883572
   1.64384    -13.881433
   1.67327    -13.879460
   1.70271    -13.877677
   1.73215    -13.876152
   1.76158    -13.874893
   1.79102    -13.873889
   1.82046    -13.873179
   1.84989    -13.872706
   1.87933    -13.872525
   1.87933    -13.872525
   1.92890    -13.872805
   1.97847    -13.873497
   2.02804    -13.874429
   2.07761    -13.875367
   2.12718    -13.876144
   2.17675    -13.876582
   2.22632    -13.876651
   2.27589    -13.876375
   2.32546    -13.875831
   2.37503    -13.876345
   2.42460    -13.896244
   2.47417    -13.903915
   2.52374    -13.900741
   2.57331    -13.897457
   2.62288    -13.898226
   2.67245    -13.900436
   2.72202    -13.902304
   2.77159    -13.903439
   2.82116    -13.903778
   2.82116    -13.903778
   2.87863    -13.903313
   2.93610    -13.901758
   2.99357    -13.899323
   3.05105    -13.897023
   3.10852    -13.899137
   3.16599    -13.902556
   3.22346    -13.891943
   3.28094    -13.880016
   3.33841    -13.881060
   3.39588    -13.883005
   3.45335    -13.885166
   3.51082    -13.887327
   3.56830    -13.889500
   3.62577    -13.891677
   3.68324    -13.893939
   3.74071    -13.896567
   3.79819    -13.899760
   3.85566    -13.903634
   3.91313    -13.906303
   3.91313    -13.906303
   3.94117    -13.904294
   3.96920    -13.901894
   3.99724    -13.899386
   4.02527    -13.896884
   4.05331    -13.894375
   4.08135    -13.891868
   4.10938    -13.889386
   4.13742    -13.887003
   4.16545    -13.884740
   4.19349    -13.882602
   4.22152    -13.880605
   4.24956    -13.878780
   4.27760    -13.877190
   4.30563    -13.875843
   4.33367    -13.874687
   4.36170    -13.873790
   4.38974    -13.873151
   4.41777    -13.872776
   4.44581    -13.872635
   4.44581    -13.872635
   4.49598    -13.872874
   4.54615    -13.873541
   4.59632    -13.874457
   4.64649    -13.875379
   4.69666    -13.876146
   4.74683    -13.876568
   4.79700    -13.876602
   4.84717    -13.876314
   4.89734    -13.875775
   4.94751    -13.876194
   4.99768    -13.896416
   5.04785    -13.904100
   5.09803    -13.900911
   5.14820    -13.897581
   5.19837    -13.898291
   5.24854    -13.900444
   5.29871    -13.902293
   5.34888    -13.903437
   5.39905    -13.903778
 
# Band-Index   10
   5.39905    -13.869620
   5.34888    -13.870827
   5.29871    -13.874104
   5.24854    -13.878982
   5.19837    -13.884419
   5.14820    -13.887972
   5.09803    -13.886296
   5.04785    -13.881520
   4.99768    -13.874254
   4.94751    -13.875093
   4.89734    -13.868960
   4.84717    -13.863067
   4.79700    -13.857670
   4.74683    -13.852682
   4.69666    -13.848270
   4.64649    -13.844527
   4.59632    -13.841530
   4.54615    -13.839349
   4.49598    -13.837992
   4.44581    -13.837532
   4.44581    -13.837532
   4.41777    -13.837548
   4.38974    -13.837571
   4.36170    -13.837605
   4.33367    -13.837650
   4.30563    -13.837711
   4.27760    -13.837767
   4.24956    -13.837872
   4.22152    -13.838019
   4.19349    -13.838156
   4.16545    -13.838306
   4.13742    -13.838451
   4.10938    -13.838590
   4.08135    -13.838774
   4.05331    -13.838934
   4.02527    -13.839073
   3.99724    -13.839181
   3.96920    -13.839304
   3.94117    -13.839372
   3.91313    -13.839419
   3.91313    -13.839419
   3.85566    -13.839367
   3.79819    -13.839279
   3.74071    -13.839357
   3.68324    -13.839947
   3.62577    -13.841287
   3.56830    -13.843664
   3.51082    -13.847207
   3.45335    -13.851926
   3.39588    -13.857633
   3.33841    -13.864075
   3.28094    -13.870912
   3.22346    -13.875808
   3.16599    -13.882174
   3.10852    -13.887278
   3.05105    -13.887369
   2.99357    -13.881681
   2.93610    -13.875552
   2.87863    -13.871242
   2.82116    -13.869620
   2.82116    -13.869620
   2.77159    -13.870834
   2.72202    -13.874122
   2.67245    -13.878981
   2.62288    -13.884444
   2.57331    -13.887980
   2.52374    -13.886313
   2.47417    -13.881539
   2.42460    -13.874250
   2.37503    -13.875098
   2.32546    -13.869056
   2.27589    -13.863163
   2.22632    -13.857722
   2.17675    -13.852725
   2.12718    -13.848299
   2.07761    -13.844527
   2.02804    -13.841516
   1.97847    -13.839312
   1.92890    -13.837984
   1.87933    -13.837530
   1.87933    -13.837530
   1.84989    -13.837510
   1.82046    -13.837544
   1.79102    -13.837578
   1.76158    -13.837632
   1.73215    -13.837704
   1.70271    -13.837796
   1.67327    -13.837921
   1.64384    -13.838064
   1.61440    -13.838203
   1.58496    -13.838365
   1.55553    -13.838567
   1.52609    -13.838724
   1.49665    -13.838880
   1.46722    -13.839043
   1.43778    -13.839202
   1.40834    -13.839312
   1.37891    -13.839376
   1.34947    -13.839409
   1.32003    -13.839428
   1.32003    -13.839428
   1.26396    -13.839368
   1.20789    -13.839318
   1.15182    -13.839517
   1.09575    -13.840271
   1.03968    -13.841873
   0.98361    -13.844543
   0.92753    -13.848360
   0.87146    -13.853209
   0.81539    -13.858924
   0.75932    -13.865213
   0.70325    -13.871527
   0.64718    -13.877598
   0.59110    -13.884050
   0.53503    -13.888518
   0.47896    -13.887422
   0.42289    -13.881245
   0.36682    -13.875328
   0.31075    -13.871131
   0.25468    -13.869672
   0.25468    -13.869672
   0.24127    -13.869672
   0.22787    -13.869690
   0.21446    -13.869664
   0.20106    -13.869664
   0.18766    -13.869701
   0.17425    -13.869673
   0.16085    -13.869669
   0.14744    -13.869668
   0.13404    -13.869676
   0.12064    -13.869650
   0.10723    -13.869650
   0.09383    -13.869666
   0.08042    -13.869665
   0.06702    -13.869663
   0.05362    -13.869661
   0.04021    -13.869615
   0.02681    -13.869630
   0.01340    -13.869656
   0.00000    -13.869620
 
# Band-Index   11
   0.00000    -13.869620
   0.01340    -13.869656
   0.02681    -13.869630
   0.04021    -13.869615
   0.05362    -13.869661
   0.06702    -13.869663
   0.08042    -13.869665
   0.09383    -13.869666
   0.10723    -13.869650
   0.12064    -13.869650
   0.13404    -13.869676
   0.14744    -13.869668
   0.16085    -13.869669
   0.17425    -13.869673
   0.18766    -13.869701
   0.20106    -13.869664
   0.21446    -13.869664
   0.22787    -13.869690
   0.24127    -13.869672
   0.25468    -13.869672
   0.25468    -13.869672
   0.31075    -13.869784
   0.36682    -13.870135
   0.42289    -13.870677
   0.47896    -13.871485
   0.53503    -13.872444
   0.59110    -13.873473
   0.64718    -13.872951
   0.70325    -13.807446
   0.75932    -13.689560
   0.81539    -13.563871
   0.87146    -13.437364
   0.92753    -13.314324
   0.98361    -13.198630
   1.03968    -13.094095
   1.09575    -13.004247
   1.15182    -12.931989
   1.20789    -12.879208
   1.26396    -12.846411
   1.32003    -12.832553
   1.32003    -12.832553
   1.34947    -12.832080
   1.37891    -12.835709
   1.40834    -12.842909
   1.43778    -12.853133
   1.46722    -12.865799
   1.49665    -12.880343
   1.52609    -12.896209
   1.55553    -12.912867
   1.58496    -12.929804
   1.61440    -12.946585
   1.64384    -12.962765
   1.67327    -12.977956
   1.70271    -12.991825
   1.73215    -13.004073
   1.76158    -13.014443
   1.79102    -13.022728
   1.82046    -13.028760
   1.84989    -13.032428
   1.87933    -13.033659
   1.87933    -13.033659
   1.92890    -13.045631
   1.97847    -13.080730
   2.02804    -13.136768
   2.07761    -13.210562
   2.12718    -13.298429
   2.17675    -13.396598
   2.22632    -13.501433
   2.27589    -13.609428
   2.32546    -13.716724
   2.37503    -13.816523
   2.42460    -13.872598
   2.47417    -13.873386
   2.52374    -13.872553
   2.57331    -13.871740
   2.62288    -13.871044
   2.67245    -13.870469
   2.72202    -13.870042
   2.77159    -13.869734
   2.82116    -13.869620
   2.82116    -13.869620
   2.87863    -13.869789
   2.93610    -13.870140
   2.99357    -13.870776
   3.05105    -13.871566
   3.10852    -13.872575
   3.16599    -13.873548
   3.22346    -13.868429
   3.28094    -13.784711
   3.33841    -13.661612
   3.39588    -13.532244
   3.45335    -13.403141
   3.51082    -13.278778
   3.56830    -13.163356
   3.62577    -13.060890
   3.68324    -12.974998
   3.74071    -12.908491
   3.79819    -12.862852
   3.85566    -12.837937
   3.91313    -12.831950
   3.91313    -12.831950
   3.94117    -12.834973
   3.96920    -12.841310
   3.99724    -12.850474
   4.02527    -12.861990
   4.05331    -12.875353
   4.08135    -12.890079
   4.10938    -12.905696
   4.13742    -12.921773
   4.16545    -12.937890
   4.19349    -12.953667
   4.22152    -12.968744
   4.24956    -12.982806
   4.27760    -12.995581
   4.30563    -13.006807
   4.33367    -13.016283
   4.36170    -13.023828
   4.38974    -13.029319
   4.41777    -13.032650
   4.44581    -13.033765
   4.44581    -13.033765
   4.49598    -13.045727
   4.54615    -13.080831
   4.59632    -13.136852
   4.64649    -13.210632
   4.69666    -13.298494
   4.74683    -13.396675
   4.79700    -13.501523
   4.84717    -13.609530
   4.89734    -13.716896
   4.94751    -13.816842
   4.99768    -13.872797
   5.04785    -13.873416
   5.09803    -13.872565
   5.14820    -13.871768
   5.19837    -13.871061
   5.24854    -13.870475
   5.29871    -13.870023
   5.34888    -13.869739
   5.39905    -13.869620
 
# Band-Index   12
   5.39905    -12.993529
   5.34888    -12.989283
   5.29871    -12.976629
   5.24854    -12.955856
   5.19837    -12.927409
   5.14820    -12.891891
   5.09803    -12.850040
   5.04785    -12.802729
   4.99768    -12.750999
   4.94751    -12.696042
   4.89734    -12.639195
   4.84717    -12.581978
   4.79700    -12.526002
   4.74683    -12.472960
   4.69666    -12.424573
   4.64649    -12.382505
   4.59632    -12.348213
   4.54615    -12.322886
   4.49598    -12.307360
   4.44581    -12.302134
   4.44581    -12.302134
   4.41777    -12.301640
   4.38974    -12.300161
   4.36170    -12.297732
   4.33367    -12.294400
   4.30563    -12.290226
   4.27760    -12.285294
   4.24956    -12.279709
   4.22152    -12.273588
   4.19349    -12.267052
   4.16545    -12.260256
   4.13742    -12.253355
   4.10938    -12.246522
   4.08135    -12.239940
   4.05331    -12.233783
   4.02527    -12.228241
   3.99724    -12.223504
   3.96920    -12.219769
   3.94117    -12.217206
   3.91313    -12.215990
   3.91313    -12.215990
   3.85566    -12.218395
   3.79819    -12.228469
   3.74071    -12.247266
   3.68324    -12.275457
   3.62577    -12.313207
   3.56830    -12.360040
   3.51082    -12.414853
   3.45335    -12.476016
   3.39588    -12.541516
   3.33841    -12.609131
   3.28094    -12.676601
   3.22346    -12.741750
   3.16599    -12.802588
   3.10852    -12.857317
   3.05105    -12.904393
   2.99357    -12.942497
   2.93610    -12.970553
   2.87863    -12.987742
   2.82116    -12.993529
   2.82116    -12.993529
   2.77159    -12.989263
   2.72202    -12.976556
   2.67245    -12.955700
   2.62288    -12.927157
   2.57331    -12.891541
   2.52374    -12.849604
   2.47417    -12.802222
   2.42460    -12.750441
   2.37503    -12.695456
   2.32546    -12.638611
   2.27589    -12.581409
   2.22632    -12.525467
   2.17675    -12.472485
   2.12718    -12.424182
   2.07761    -12.382193
   2.02804    -12.347977
   1.97847    -12.322714
   1.92890    -12.307246
   1.87933    -12.302033
   1.87933    -12.302033
   1.84989    -12.301488
   1.82046    -12.299865
   1.79102    -12.297200
   1.76158    -12.293545
   1.73215    -12.288979
   1.70271    -12.283607
   1.67327    -12.277552
   1.64384    -12.270952
   1.61440    -12.263959
   1.58496    -12.256761
   1.55553    -12.249547
   1.52609    -12.242502
   1.49665    -12.235857
   1.46722    -12.229817
   1.43778    -12.224600
   1.40834    -12.220426
   1.37891    -12.217503
   1.34947    -12.216034
   1.32003    -12.216232
   1.32003    -12.216232
   1.26396    -12.221810
   1.20789    -12.235188
   1.15182    -12.257256
   1.09575    -12.288497
   1.03968    -12.328842
   0.98361    -12.377659
   0.92753    -12.433732
   0.87146    -12.495384
   0.81539    -12.560667
   0.75932    -12.627472
   0.70325    -12.693704
   0.64718    -12.757348
   0.59110    -12.816571
   0.53503    -12.869724
   0.47896    -12.915386
   0.42289    -12.952323
   0.36682    -12.979528
   0.31075    -12.996190
   0.25468    -13.001804
   0.25468    -13.001804
   0.24127    -13.001750
   0.22787    -13.001589
   0.21446    -13.001325
   0.20106    -13.000964
   0.18766    -13.000522
   0.17425    -12.999997
   0.16085    -12.999410
   0.14744    -12.998774
   0.13404    -12.998106
   0.12064    -12.997422
   0.10723    -12.996743
   0.09383    -12.996086
   0.08042    -12.995472
   0.06702    -12.994918
   0.05362    -12.994440
   0.04021    -12.994050
   0.02681    -12.993766
   0.01340    -12.993592
   0.00000    -12.993529
 
# Band-Index   13
   0.00000    -12.809588
   0.01340    -12.809529
   0.02681    -12.809343
   0.04021    -12.809034
   0.05362    -12.808624
   0.06702    -12.808115
   0.08042    -12.807525
   0.09383    -12.806872
   0.10723    -12.806174
   0.12064    -12.805451
   0.13404    -12.804733
   0.14744    -12.804018
   0.16085    -12.803339
   0.17425    -12.802711
   0.18766    -12.802151
   0.20106    -12.801670
   0.21446    -12.801285
   0.22787    -12.801010
   0.24127    -12.800838
   0.25468    -12.800781
   0.25468    -12.800781
   0.31075    -12.793945
   0.36682    -12.773732
   0.42289    -12.740946
   0.47896    -12.696857
   0.53503    -12.643072
   0.59110    -12.581425
   0.64718    -12.513948
   0.70325    -12.442754
   0.75932    -12.370041
   0.81539    -12.298048
   0.87146    -12.228942
   0.92753    -12.164760
   0.98361    -12.107227
   1.03968    -12.057687
   1.09575    -12.017000
   1.15182    -11.985501
   1.20789    -11.963085
   1.26396    -11.949311
   1.32003    -11.943471
   1.32003    -11.943471
   1.34947    -11.943265
   1.37891    -11.944836
   1.40834    -11.948007
   1.43778    -11.952573
   1.46722    -11.958328
   1.49665    -11.965046
   1.52609    -11.972499
   1.55553    -11.980462
   1.58496    -11.988664
   1.61440    -11.996904
   1.64384    -12.004953
   1.67327    -12.012590
   1.70271    -12.019635
   1.73215    -12.025902
   1.76158    -12.031249
   1.79102    -12.035539
   1.82046    -12.038675
   1.84989    -12.040584
   1.87933    -12.041228
   1.87933    -12.041228
   1.92890    -12.046197
   1.97847    -12.061034
   2.02804    -12.085571
   2.07761    -12.119382
   2.12718    -12.161707
   2.17675    -12.211435
   2.22632    -12.267157
   2.27589    -12.327257
   2.32546    -12.389983
   2.37503    -12.453588
   2.42460    -12.516338
   2.47417    -12.576560
   2.52374    -12.632681
   2.57331    -12.683202
   2.62288    -12.726764
   2.67245    -12.762120
   2.72202    -12.788208
   2.77159    -12.804204
   2.82116    -12.809588
   2.82116    -12.809588
   2.87863    -12.802305
   2.93610    -12.780753
   2.99357    -12.745885
   3.05105    -12.699115
   3.10852    -12.642265
   3.16599    -12.577376
   3.22346    -12.506679
   3.28094    -12.432459
   3.33841    -12.357128
   3.39588    -12.283103
   3.45335    -12.212718
   3.51082    -12.148123
   3.56830    -12.091096
   3.62577    -12.042929
   3.68324    -12.004349
   3.74071    -11.975552
   3.79819    -11.956230
   3.85566    -11.945752
   3.91313    -11.943216
   3.91313    -11.943216
   3.94117    -11.944511
   3.96920    -11.947288
   3.99724    -11.951354
   4.02527    -11.956558
   4.05331    -11.962684
   4.08135    -11.969541
   4.10938    -11.976934
   4.13742    -11.984659
   4.16545    -11.992499
   4.19349    -12.000274
   4.22152    -12.007791
   4.24956    -12.014872
   4.27760    -12.021356
   4.30563    -12.027108
   4.33367    -12.031985
   4.36170    -12.035891
   4.38974    -12.038744
   4.41777    -12.040482
   4.44581    -12.041060
   4.44581    -12.041060
   4.49598    -12.046005
   4.54615    -12.060794
   4.59632    -12.085249
   4.64649    -12.118962
   4.69666    -12.161195
   4.74683    -12.210859
   4.79700    -12.266523
   4.84717    -12.326579
   4.89734    -12.389295
   4.94751    -12.452919
   4.99768    -12.515705
   5.04785    -12.575994
   5.09803    -12.632201
   5.14820    -12.682825
   5.19837    -12.726493
   5.24854    -12.761952
   5.29871    -12.788128
   5.34888    -12.804184
   5.39905    -12.809588
 
# Band-Index   14
   5.39905     -7.068770
   5.34888     -7.068904
   5.29871     -7.069158
   5.24854     -7.069367
   5.19837     -7.069151
   5.14820     -7.068149
   5.09803     -7.065803
   5.04785     -7.061572
   4.99768     -7.054969
   4.94751     -7.045498
   4.89734     -7.032820
   4.84717     -7.016963
   4.79700     -6.998385
   4.74683     -6.978467
   4.69666     -6.961196
   4.64649     -6.964675
   4.59632     -7.016183
   4.54615     -7.073849
   4.49598     -7.113210
   4.44581     -7.126985
   4.44581     -7.126985
   4.41777     -7.125751
   4.38974     -7.122067
   4.36170     -7.116003
   4.33367     -7.107684
   4.30563     -7.097280
   4.27760     -7.085012
   4.24956     -7.071160
   4.22152     -7.056064
   4.19349     -7.040116
   4.16545     -7.023758
   4.13742     -7.007478
   4.10938     -6.991776
   4.08135     -6.977166
   4.05331     -6.964128
   4.02527     -6.953084
   3.99724     -6.944364
   3.96920     -6.938177
   3.94117     -6.934525
   3.91313     -6.933196
   3.91313     -6.933196
   3.85566     -6.935294
   3.79819     -6.937956
   3.74071     -6.934880
   3.68324     -6.926902
   3.62577     -6.927386
   3.56830     -6.942953
   3.51082     -6.965612
   3.45335     -6.989528
   3.39588     -7.011655
   3.33841     -7.030381
   3.28094     -7.045068
   3.22346     -7.055716
   3.16599     -7.062777
   3.10852     -7.066860
   3.05105     -7.068837
   2.99357     -7.069439
   2.93610     -7.069285
   2.87863     -7.068951
   2.82116     -7.068770
   2.82116     -7.068770
   2.77159     -7.068904
   2.72202     -7.069177
   2.67245     -7.069360
   2.62288     -7.069137
   2.57331     -7.068105
   2.52374     -7.065778
   2.47417     -7.061558
   2.42460     -7.054974
   2.37503     -7.045546
   2.32546     -7.032969
   2.27589     -7.017292
   2.22632     -6.999000
   2.17675     -6.979682
   2.12718     -6.963860
   2.07761     -6.970015
   2.02804     -7.020496
   1.97847     -7.077064
   1.92890     -7.115961
   1.87933     -7.129601
   1.87933     -7.129601
   1.84989     -7.128244
   1.82046     -7.124199
   1.79102     -7.117550
   1.76158     -7.108442
   1.73215     -7.097080
   1.70271     -7.083735
   1.67327     -7.068740
   1.64384     -7.052501
   1.61440     -7.035483
   1.58496     -7.018213
   1.55553     -7.001262
   1.52609     -6.985196
   1.49665     -6.970602
   1.46722     -6.957986
   1.43778     -6.947782
   1.40834     -6.940273
   1.37891     -6.935554
   1.34947     -6.933418
   1.32003     -6.933331
   1.32003     -6.933332
   1.26396     -6.935701
   1.20789     -6.935646
   1.15182     -6.929397
   1.09575     -6.923198
   1.03968     -6.930529
   0.98361     -6.949554
   0.92753     -6.972712
   0.87146     -6.995819
   0.81539     -7.016674
   0.75932     -7.034028
   0.70325     -7.047499
   0.64718     -7.057167
   0.59110     -7.063524
   0.53503     -7.067187
   0.47896     -7.068925
   0.42289     -7.069359
   0.36682     -7.069256
   0.31075     -7.068946
   0.25468     -7.068811
   0.25468     -7.068811
   0.24127     -7.068811
   0.22787     -7.068813
   0.21446     -7.068808
   0.20106     -7.068808
   0.18766     -7.068811
   0.17425     -7.068798
   0.16085     -7.068804
   0.14744     -7.068805
   0.13404     -7.068805
   0.12064     -7.068804
   0.10723     -7.068804
   0.09383     -7.068805
   0.08042     -7.068804
   0.06702     -7.068804
   0.05362     -7.068804
   0.04021     -7.068769
   0.02681     -7.068774
   0.01340     -7.068785
   0.00000     -7.068770
 
# Band-Index   15
   0.00000     -7.068765
   0.01340     -7.068780
   0.02681     -7.068770
   0.04021     -7.068765
   0.05362     -7.068800
   0.06702     -7.068800
   0.08042     -7.068800
   0.09383     -7.068800
   0.10723     -7.068799
   0.12064     -7.068799
   0.13404     -7.068800
   0.14744     -7.068800
   0.16085     -7.068800
   0.17425     -7.068794
   0.18766     -7.068807
   0.20106     -7.068803
   0.21446     -7.068803
   0.22787     -7.068809
   0.24127     -7.068806
   0.25468     -7.068806
   0.25468     -7.068806
   0.31075     -7.066515
   0.36682     -7.059707
   0.42289     -7.048439
   0.47896     -7.033112
   0.53503     -7.013939
   0.59110     -6.991346
   0.64718     -6.965822
   0.70325     -6.938103
   0.75932     -6.908903
   0.81539     -6.879233
   0.87146     -6.850245
   0.92753     -6.823497
   0.98361     -6.801431
   1.03968     -6.816234
   1.09575     -6.839297
   1.15182     -6.841159
   1.20789     -6.833618
   1.26396     -6.826514
   1.32003     -6.822965
   1.32003     -6.822965
   1.34947     -6.822820
   1.37891     -6.823907
   1.40834     -6.826159
   1.43778     -6.829434
   1.46722     -6.833508
   1.49665     -6.838131
   1.52609     -6.843022
   1.55553     -6.847898
   1.58496     -6.852486
   1.61440     -6.856688
   1.64384     -6.860362
   1.67327     -6.863413
   1.70271     -6.865845
   1.73215     -6.867700
   1.76158     -6.869021
   1.79102     -6.869895
   1.82046     -6.870426
   1.84989     -6.870689
   1.87933     -6.870778
   1.87933     -6.870778
   1.92890     -6.873404
   1.97847     -6.880643
   2.02804     -6.889303
   2.07761     -6.883573
   2.12718     -6.837275
   2.17675     -6.853976
   2.22632     -6.875002
   2.27589     -6.897537
   2.32546     -6.920855
   2.37503     -6.944290
   2.42460     -6.967103
   2.47417     -6.988748
   2.52374     -7.008591
   2.57331     -7.026146
   2.62288     -7.041076
   2.67245     -7.053033
   2.72202     -7.061759
   2.77159     -7.067043
   2.82116     -7.068765
   2.82116     -7.068765
   2.87863     -7.066398
   2.93610     -7.059224
   2.99357     -7.047474
   3.05105     -7.031329
   3.10852     -7.011236
   3.16599     -6.987609
   3.22346     -6.961035
   3.28094     -6.932191
   3.33841     -6.901987
   3.39588     -6.871489
   3.45335     -6.842083
   3.51082     -6.815459
   3.56830     -6.801949
   3.62577     -6.831711
   3.68324     -6.844057
   3.74071     -6.838964
   3.79819     -6.830331
   3.85566     -6.824391
   3.91313     -6.822803
   3.91313     -6.822803
   3.94117     -6.823692
   3.96920     -6.825671
   3.99724     -6.828604
   4.02527     -6.832393
   4.05331     -6.836760
   4.08135     -6.841454
   4.10938     -6.846226
   4.13742     -6.850905
   4.16545     -6.855263
   4.19349     -6.859174
   4.22152     -6.862587
   4.24956     -6.865426
   4.27760     -6.867731
   4.30563     -6.869523
   4.33367     -6.870829
   4.36170     -6.871721
   4.38974     -6.872292
   4.41777     -6.872582
   4.44581     -6.872676
   4.44581     -6.872676
   4.49598     -6.875400
   4.54615     -6.882995
   4.59632     -6.892552
   4.64649     -6.887455
   4.69666     -6.837888
   4.74683     -6.853931
   4.79700     -6.874974
   4.84717     -6.897526
   4.89734     -6.920854
   4.94751     -6.944303
   4.99768     -6.967121
   5.04785     -6.988733
   5.09803     -7.008589
   5.14820     -7.026157
   5.19837     -7.041098
   5.24854     -7.053038
   5.29871     -7.061750
   5.34888     -7.067046
   5.39905     -7.068765
 
# Band-Index   16
   5.39905     -6.946396
   5.34888     -6.942877
   5.29871     -6.932451
   5.24854     -6.915660
   5.19837     -6.893419
   5.14820     -6.866988
   5.09803     -6.838000
   5.04785     -6.808374
   4.99768     -6.780447
   4.94751     -6.757005
   4.89734     -6.741627
   4.84717     -6.738509
   4.79700     -6.751561
   4.74683     -6.784660
   4.69666     -6.835075
   4.64649     -6.818975
   4.59632     -6.806097
   4.54615     -6.796748
   4.49598     -6.791079
   4.44581     -6.789168
   4.44581     -6.789168
   4.41777     -6.788737
   4.38974     -6.787397
   4.36170     -6.785289
   4.33367     -6.782552
   4.30563     -6.779230
   4.27760     -6.775535
   4.24956     -6.771624
   4.22152     -6.767690
   4.19349     -6.763887
   4.16545     -6.760429
   4.13742     -6.757480
   4.10938     -6.755159
   4.08135     -6.753634
   4.05331     -6.752864
   4.02527     -6.752729
   3.99724     -6.752988
   3.96920     -6.753462
   3.94117     -6.753843
   3.91313     -6.754037
   3.91313     -6.754037
   3.85566     -6.753737
   3.79819     -6.753906
   3.74071     -6.756471
   3.68324     -6.763050
   3.62577     -6.774705
   3.56830     -6.790352
   3.51082     -6.765619
   3.45335     -6.741578
   3.39588     -6.731001
   3.33841     -6.735059
   3.28094     -6.752552
   3.22346     -6.779534
   3.16599     -6.811706
   3.10852     -6.845523
   3.05105     -6.877901
   2.99357     -6.906132
   2.93610     -6.927956
   2.87863     -6.941721
   2.82116     -6.946396
   2.82116     -6.946396
   2.77159     -6.942924
   2.72202     -6.932647
   2.67245     -6.916100
   2.62288     -6.894200
   2.57331     -6.868225
   2.52374     -6.839755
   2.47417     -6.810660
   2.42460     -6.783141
   2.37503     -6.759903
   2.32546     -6.744433
   2.27589     -6.741005
   2.22632     -6.753631
   2.17675     -6.785959
   2.12718     -6.835121
   2.07761     -6.818996
   2.02804     -6.806089
   1.97847     -6.796696
   1.92890     -6.791002
   1.87933     -6.789115
   1.87933     -6.789115
   1.84989     -6.788582
   1.82046     -6.787099
   1.79102     -6.784709
   1.76158     -6.781578
   1.73215     -6.777843
   1.70271     -6.773785
   1.67327     -6.769552
   1.64384     -6.765396
   1.61440     -6.761473
   1.58496     -6.758058
   1.55553     -6.755386
   1.52609     -6.753473
   1.49665     -6.752472
   1.46722     -6.752234
   1.43778     -6.752559
   1.40834     -6.753135
   1.37891     -6.753663
   1.34947     -6.753961
   1.32003     -6.754008
   1.32003     -6.754008
   1.26396     -6.753799
   1.20789     -6.754739
   1.15182     -6.758621
   1.09575     -6.766769
   1.03968     -6.779488
   0.98361     -6.775701
   0.92753     -6.742146
   0.87146     -6.718135
   0.81539     -6.706731
   0.75932     -6.709578
   0.70325     -6.726636
   0.64718     -6.753625
   0.59110     -6.786010
   0.53503     -6.820267
   0.47896     -6.853226
   0.42289     -6.882045
   0.36682     -6.904365
   0.31075     -6.918444
   0.25468     -6.923259
   0.25468     -6.923259
   0.24127     -6.923440
   0.22787     -6.923974
   0.21446     -6.924833
   0.20106     -6.925998
   0.18766     -6.927429
   0.17425     -6.929056
   0.16085     -6.930835
   0.14744     -6.932709
   0.13404     -6.934625
   0.12064     -6.936514
   0.10723     -6.938347
   0.09383     -6.940074
   0.08042     -6.941649
   0.06702     -6.943040
   0.05362     -6.944216
   0.04021     -6.945158
   0.02681     -6.945859
   0.01340     -6.946278
   0.00000     -6.946396
 
# Band-Index   17
   0.00000     -6.541529
   0.01340     -6.541559
   0.02681     -6.541539
   0.04021     -6.541522
   0.05362     -6.541559
   0.06702     -6.541560
   0.08042     -6.541560
   0.09383     -6.541560
   0.10723     -6.541547
   0.12064     -6.541547
   0.13404     -6.541571
   0.14744     -6.541563
   0.16085     -6.541562
   0.17425     -6.541568
   0.18766     -6.541590
   0.20106     -6.541551
   0.21446     -6.541550
   0.22787     -6.541569
   0.24127     -6.541551
   0.25468     -6.541551
   0.25468     -6.541551
   0.31075     -6.544543
   0.36682     -6.551996
   0.42289     -6.561594
   0.47896     -6.572406
   0.53503     -6.583680
   0.59110     -6.594857
   0.64718     -6.605046
   0.70325     -6.612600
   0.75932     -6.614720
   0.81539     -6.609396
   0.87146     -6.600694
   0.92753     -6.596060
   0.98361     -6.598469
   1.03968     -6.605271
   1.09575     -6.611250
   1.15182     -6.613698
   1.20789     -6.612588
   1.26396     -6.609305
   1.32003     -6.606279
   1.32003     -6.606279
   1.34947     -6.605873
   1.37891     -6.606750
   1.40834     -6.608891
   1.43778     -6.611991
   1.46722     -6.615597
   1.49665     -6.619338
   1.52609     -6.622882
   1.55553     -6.626012
   1.58496     -6.628574
   1.61440     -6.630683
   1.64384     -6.632338
   1.67327     -6.633613
   1.70271     -6.634604
   1.73215     -6.635361
   1.76158     -6.635960
   1.79102     -6.636415
   1.82046     -6.636731
   1.84989     -6.636914
   1.87933     -6.636994
   1.87933     -6.636994
   1.92890     -6.636062
   1.97847     -6.632965
   2.02804     -6.627050
   2.07761     -6.617682
   2.12718     -6.606416
   2.17675     -6.600168
   2.22632     -6.603000
   2.27589     -6.608582
   2.32546     -6.610473
   2.37503     -6.607201
   2.42460     -6.600136
   2.47417     -6.591039
   2.52374     -6.581114
   2.57331     -6.571119
   2.62288     -6.561835
   2.67245     -6.553651
   2.72202     -6.547205
   2.77159     -6.543028
   2.82116     -6.541529
   2.82116     -6.541529
   2.87863     -6.543541
   2.93610     -6.549060
   2.99357     -6.557425
   3.05105     -6.567604
   3.10852     -6.578833
   3.16599     -6.590061
   3.22346     -6.600180
   3.28094     -6.607354
   3.33841     -6.609255
   3.39588     -6.604581
   3.45335     -6.597045
   3.51082     -6.593312
   3.56830     -6.596268
   3.62577     -6.603218
   3.68324     -6.608931
   3.74071     -6.610911
   3.79819     -6.609540
   3.85566     -6.606835
   3.91313     -6.606061
   3.91313     -6.606061
   3.94117     -6.607256
   3.96920     -6.609583
   3.99724     -6.612731
   4.02527     -6.616377
   4.05331     -6.620146
   4.08135     -6.623739
   4.10938     -6.626941
   4.13742     -6.629685
   4.16545     -6.631924
   4.19349     -6.633709
   4.22152     -6.635097
   4.24956     -6.636195
   4.27760     -6.637065
   4.30563     -6.637769
   4.33367     -6.638299
   4.36170     -6.638699
   4.38974     -6.639002
   4.41777     -6.639179
   4.44581     -6.639223
   4.44581     -6.639223
   4.49598     -6.638381
   4.54615     -6.635615
   4.59632     -6.630109
   4.64649     -6.621097
   4.69666     -6.609493
   4.74683     -6.601574
   4.79700     -6.602777
   4.84717     -6.607797
   4.89734     -6.609875
   4.94751     -6.606910
   4.99768     -6.600096
   5.04785     -6.591128
   5.09803     -6.581272
   5.14820     -6.571267
   5.19837     -6.561887
   5.24854     -6.553688
   5.29871     -6.547199
   5.34888     -6.543025
   5.39905     -6.541529
 
# Band-Index   18
   5.39905     -6.541529
   5.34888     -6.541625
   5.29871     -6.541838
   5.24854     -6.542166
   5.19837     -6.542562
   5.14820     -6.542992
   5.09803     -6.543401
   5.04785     -6.543726
   4.99768     -6.543866
   4.94751     -6.543813
   4.89734     -6.543411
   4.84717     -6.542663
   4.79700     -6.541502
   4.74683     -6.539936
   4.69666     -6.538020
   4.64649     -6.535914
   4.59632     -6.533877
   4.54615     -6.532139
   4.49598     -6.530965
   4.44581     -6.530546
   4.44581     -6.530546
   4.41777     -6.530882
   4.38974     -6.531830
   4.36170     -6.533399
   4.33367     -6.535521
   4.30563     -6.538135
   4.27760     -6.541107
   4.24956     -6.544415
   4.22152     -6.547966
   4.19349     -6.551661
   4.16545     -6.555399
   4.13742     -6.559119
   4.10938     -6.562759
   4.08135     -6.566273
   4.05331     -6.569560
   4.02527     -6.572569
   3.99724     -6.575231
   3.96920     -6.577478
   3.94117     -6.579091
   3.91313     -6.579903
   3.91313     -6.579903
   3.85566     -6.578841
   3.79819     -6.575341
   3.74071     -6.570614
   3.68324     -6.564879
   3.62577     -6.557273
   3.56830     -6.546358
   3.51082     -6.537101
   3.45335     -6.538367
   3.39588     -6.542673
   3.33841     -6.544883
   3.28094     -6.545410
   3.22346     -6.545105
   3.16599     -6.544442
   3.10852     -6.543688
   3.05105     -6.542973
   2.99357     -6.542408
   2.93610     -6.541928
   2.87863     -6.541663
   2.82116     -6.541529
   2.82116     -6.541529
   2.77159     -6.541620
   2.72202     -6.541858
   2.67245     -6.542169
   2.62288     -6.542555
   2.57331     -6.542972
   2.52374     -6.543399
   2.47417     -6.543705
   2.42460     -6.543875
   2.37503     -6.543836
   2.32546     -6.543469
   2.27589     -6.542722
   2.22632     -6.541548
   2.17675     -6.539954
   2.12718     -6.538025
   2.07761     -6.535906
   2.02804     -6.533853
   1.97847     -6.532084
   1.92890     -6.530889
   1.87933     -6.530437
   1.87933     -6.530437
   1.84989     -6.530826
   1.82046     -6.531929
   1.79102     -6.533656
   1.76158     -6.536001
   1.73215     -6.538841
   1.70271     -6.542117
   1.67327     -6.545714
   1.64384     -6.549526
   1.61440     -6.553434
   1.58496     -6.557336
   1.55553     -6.561261
   1.52609     -6.565035
   1.49665     -6.568616
   1.46722     -6.571921
   1.43778     -6.574877
   1.40834     -6.577313
   1.37891     -6.579055
   1.34947     -6.579887
   1.32003     -6.579742
   1.32003     -6.579742
   1.26396     -6.577319
   1.20789     -6.573359
   1.15182     -6.568538
   1.09575     -6.562846
   1.03968     -6.555368
   0.98361     -6.545167
   0.92753     -6.537652
   0.87146     -6.539377
   0.81539     -6.543153
   0.75932     -6.544976
   0.70325     -6.545357
   0.64718     -6.545015
   0.59110     -6.544348
   0.53503     -6.543588
   0.47896     -6.542912
   0.42289     -6.542319
   0.36682     -6.541914
   0.31075     -6.541639
   0.25468     -6.541551
   0.25468     -6.541551
   0.24127     -6.541551
   0.22787     -6.541568
   0.21446     -6.541550
   0.20106     -6.541551
   0.18766     -6.541590
   0.17425     -6.541568
   0.16085     -6.541562
   0.14744     -6.541563
   0.13404     -6.541571
   0.12064     -6.541547
   0.10723     -6.541547
   0.09383     -6.541560
   0.08042     -6.541560
   0.06702     -6.541559
   0.05362     -6.541559
   0.04021     -6.541522
   0.02681     -6.541539
   0.01340     -6.541559
   0.00000     -6.541529
 
# Band-Index   19
   0.00000     -6.402951
   0.01340     -6.403614
   0.02681     -6.405487
   0.04021     -6.408527
   0.05362     -6.412669
   0.06702     -6.417786
   0.08042     -6.423715
   0.09383     -6.430284
   0.10723     -6.437302
   0.12064     -6.444586
   0.13404     -6.451949
   0.14744     -6.459148
   0.16085     -6.466037
   0.17425     -6.472421
   0.18766     -6.478137
   0.20106     -6.483009
   0.21446     -6.486957
   0.22787     -6.489868
   0.24127     -6.491637
   0.25468     -6.492232
   0.25468     -6.492232
   0.31075     -6.488055
   0.36682     -6.477058
   0.42289     -6.461082
   0.47896     -6.440927
   0.53503     -6.417125
   0.59110     -6.391044
   0.64718     -6.365938
   0.70325     -6.347587
   0.75932     -6.343608
   0.81539     -6.359168
   0.87146     -6.389338
   0.92753     -6.413287
   0.98361     -6.406135
   1.03968     -6.369472
   1.09575     -6.317043
   1.15182     -6.259651
   1.20789     -6.207806
   1.26396     -6.171313
   1.32003     -6.155374
   1.32003     -6.155374
   1.34947     -6.154854
   1.37891     -6.158829
   1.40834     -6.166337
   1.43778     -6.176482
   1.46722     -6.188479
   1.49665     -6.201676
   1.52609     -6.215550
   1.55553     -6.229689
   1.58496     -6.243668
   1.61440     -6.257265
   1.64384     -6.270183
   1.67327     -6.282160
   1.70271     -6.293044
   1.73215     -6.302620
   1.76158     -6.310711
   1.79102     -6.317168
   1.82046     -6.321875
   1.84989     -6.324749
   1.87933     -6.325711
   1.87933     -6.325711
   1.92890     -6.337435
   1.97847     -6.366675
   2.02804     -6.401627
   2.07761     -6.431058
   2.12718     -6.443978
   2.17675     -6.428493
   2.22632     -6.387162
   2.27589     -6.342159
   2.32546     -6.311796
   2.37503     -6.300886
   2.42460     -6.305407
   2.47417     -6.319048
   2.52374     -6.336528
   2.57331     -6.354400
   2.62288     -6.370684
   2.67245     -6.384274
   2.72202     -6.394486
   2.77159     -6.400821
   2.82116     -6.402951
   2.82116     -6.402951
   2.87863     -6.399971
   2.93610     -6.391169
   2.99357     -6.377168
   3.05105     -6.358816
   3.10852     -6.337480
   3.16599     -6.315625
   3.22346     -6.297710
   3.28094     -6.290537
   3.33841     -6.301543
   3.39588     -6.333256
   3.45335     -6.375851
   3.51082     -6.403921
   3.56830     -6.393523
   3.62577     -6.352078
   3.68324     -6.296108
   3.74071     -6.238252
   3.79819     -6.190363
   3.85566     -6.161704
   3.91313     -6.154700
   3.91313     -6.154700
   3.94117     -6.157932
   3.96920     -6.164496
   3.99724     -6.173598
   4.02527     -6.184570
   4.05331     -6.196769
   4.08135     -6.209706
   4.10938     -6.222990
   4.13742     -6.236311
   4.16545     -6.249368
   4.19349     -6.261930
   4.22152     -6.273803
   4.24956     -6.284774
   4.27760     -6.294683
   4.30563     -6.303390
   4.33367     -6.310726
   4.36170     -6.316572
   4.38974     -6.320815
   4.41777     -6.323427
   4.44581     -6.324286
   4.44581     -6.324286
   4.49598     -6.335979
   4.54615     -6.365257
   4.59632     -6.400236
   4.64649     -6.430042
   4.69666     -6.444418
   4.74683     -6.431993
   4.79700     -6.393673
   4.84717     -6.350594
   4.89734     -6.321200
   4.94751     -6.310354
   4.99768     -6.314187
   5.04785     -6.326601
   5.09803     -6.342601
   5.14820     -6.358915
   5.19837     -6.373743
   5.24854     -6.386060
   5.29871     -6.395301
   5.34888     -6.401031
   5.39905     -6.402951
 
# Band-Index   20
   5.39905     -4.915816
   5.34888     -4.912063
   5.29871     -4.901185
   5.24854     -4.884392
   5.19837     -4.863851
   5.14820     -4.842935
   5.09803     -4.826736
   5.04785     -4.822729
   4.99768     -4.840832
   4.94751     -4.888787
   4.89734     -4.959140
   4.84717     -5.026831
   4.79700     -5.070220
   4.74683     -5.085405
   4.69666     -5.088621
   4.64649     -5.144152
   4.59632     -5.265378
   4.54615     -5.379902
   4.49598     -5.460374
   4.44581     -5.489635
   4.44581     -5.489635
   4.41777     -5.488584
   4.38974     -5.485434
   4.36170     -5.480220
   4.33367     -5.472998
   4.30563     -5.463842
   4.27760     -5.452880
   4.24956     -5.440283
   4.22152     -5.426282
   4.19349     -5.411182
   4.16545     -5.395383
   4.13742     -5.379374
   4.10938     -5.363751
   4.08135     -5.349192
   4.05331     -5.336406
   4.02527     -5.326049
   3.99724     -5.318599
   3.96920     -5.314170
   3.94117     -5.312327
   3.91313     -5.311968
   3.91313     -5.311968
   3.85566     -5.308126
   3.79819     -5.285560
   3.74071     -5.233024
   3.68324     -5.150952
   3.62577     -5.054260
   3.56830     -5.000703
   3.51082     -5.005631
   3.45335     -5.012076
   3.39588     -4.996777
   3.33841     -4.954058
   3.28094     -4.898671
   3.22346     -4.856534
   3.16599     -4.840507
   3.10852     -4.845725
   3.05105     -4.862327
   2.99357     -4.882202
   2.93610     -4.899814
   2.87863     -4.911664
   2.82116     -4.915816
   2.82116     -4.915816
   2.77159     -4.912574
   2.72202     -4.903190
   2.67245     -4.888767
   2.62288     -4.871290
   2.57331     -4.853872
   2.52374     -4.841234
   2.47417     -4.840294
   2.42460     -4.860031
   2.37503     -4.907032
   2.32546     -4.974007
   2.27589     -5.037817
   2.22632     -5.078324
   2.17675     -5.092101
   2.12718     -5.093895
   2.07761     -5.137477
   2.02804     -5.252721
   1.97847     -5.366571
   1.92890     -5.447057
   1.87933     -5.476344
   1.87933     -5.476344
   1.84989     -5.475247
   1.82046     -5.471968
   1.79102     -5.466540
   1.76158     -5.459024
   1.73215     -5.449517
   1.70271     -5.438155
   1.67327     -5.425150
   1.64384     -5.410783
   1.61440     -5.395432
   1.58496     -5.379591
   1.55553     -5.363881
   1.52609     -5.349015
   1.49665     -5.335804
   1.46722     -5.325029
   1.43778     -5.317310
   1.40834     -5.312890
   1.37891     -5.311409
   1.34947     -5.311701
   1.32003     -5.311818
   1.32003     -5.311819
   1.26396     -5.302799
   1.20789     -5.269676
   1.15182     -5.206531
   1.09575     -5.118173
   1.03968     -5.028123
   0.98361     -5.005262
   0.92753     -5.020419
   0.87146     -5.022992
   0.81539     -4.992603
   0.75932     -4.924716
   0.70325     -4.834262
   0.64718     -4.749888
   0.59110     -4.693004
   0.53503     -4.664516
   0.47896     -4.655038
   0.42289     -4.655528
   0.36682     -4.659696
   0.31075     -4.663610
   0.25468     -4.665142
   0.25468     -4.665142
   0.24127     -4.667111
   0.22787     -4.672934
   0.21446     -4.682362
   0.20106     -4.695016
   0.18766     -4.710409
   0.17425     -4.727983
   0.16085     -4.747150
   0.14744     -4.767315
   0.13404     -4.787896
   0.12064     -4.808337
   0.10723     -4.828124
   0.09383     -4.846778
   0.08042     -4.863868
   0.06702     -4.879011
   0.05362     -4.891874
   0.04021     -4.902178
   0.02681     -4.909701
   0.01340     -4.914280
   0.00000     -4.915816
 
# Band-Index   21
   0.00000     -2.685105
   0.01340     -2.685106
   0.02681     -2.685107
   0.04021     -2.685108
   0.05362     -2.685114
   0.06702     -2.685119
   0.08042     -2.685125
   0.09383     -2.733327
   0.10723     -2.787168
   0.12064     -2.839699
   0.13404     -2.890123
   0.14744     -2.937726
   0.16085     -2.981836
   0.17425     -3.021804
   0.18766     -3.056997
   0.20106     -3.086807
   0.21446     -3.110675
   0.22787     -3.128114
   0.24127     -3.138740
   0.25468     -3.142310
   0.25468     -3.142310
   0.31075     -3.157085
   0.36682     -3.214881
   0.42289     -3.341342
   0.47896     -3.531166
   0.53503     -3.750196
   0.59110     -3.965444
   0.64718     -4.151465
   0.70325     -4.296592
   0.75932     -4.410593
   0.81539     -4.512983
   0.87146     -4.617466
   0.92753     -4.729240
   0.98361     -4.842905
   1.03968     -4.918746
   1.09575     -4.932376
   1.15182     -4.959444
   1.20789     -5.020578
   1.26396     -5.084894
   1.32003     -5.120778
   1.32003     -5.120779
   1.34947     -5.122400
   1.37891     -5.110595
   1.40834     -5.085285
   1.43778     -5.047589
   1.46722     -5.000400
   1.49665     -4.950184
   1.52609     -4.911338
   1.55553     -4.899623
   1.58496     -4.908456
   1.61440     -4.925366
   1.64384     -4.944650
   1.67327     -4.963913
   1.70271     -4.981945
   1.73215     -4.998026
   1.76158     -5.011684
   1.79102     -5.022594
   1.82046     -5.030530
   1.84989     -5.035347
   1.87933     -5.036962
   1.87933     -5.036962
   1.92890     -5.034336
   1.97847     -5.028711
   2.02804     -5.024178
   2.07761     -5.010206
   2.12718     -4.926002
   2.17675     -4.803297
   2.22632     -4.689483
   2.27589     -4.588725
   2.32546     -4.489833
   2.37503     -4.371901
   2.42460     -4.216110
   2.47417     -4.020994
   2.52374     -3.798816
   2.57331     -3.564160
   2.62288     -3.330082
   2.67245     -3.108549
   2.72202     -2.911776
   2.77159     -2.756202
   2.82116     -2.685105
   2.82116     -2.685105
   2.87863     -2.777607
   2.93610     -2.971506
   2.99357     -3.210799
   3.05105     -3.471866
   3.10852     -3.735083
   3.16599     -3.981187
   3.22346     -4.191021
   3.28094     -4.351319
   3.33841     -4.467724
   3.39588     -4.563432
   3.45335     -4.659918
   3.51082     -4.766802
   3.56830     -4.874346
   3.62577     -4.928889
   3.68324     -4.944937
   3.74071     -4.985784
   3.79819     -5.052179
   3.85566     -5.106773
   3.91313     -5.122626
   3.91313     -5.122626
   3.94117     -5.112253
   3.96920     -5.089418
   3.99724     -5.054772
   4.02527     -5.010152
   4.05331     -4.959494
   4.08135     -4.912123
   4.10938     -4.886267
   4.13742     -4.887265
   4.16545     -4.900966
   4.19349     -4.918758
   4.22152     -4.937380
   4.24956     -4.955374
   4.27760     -4.971942
   4.30563     -4.986573
   4.33367     -4.998921
   4.36170     -5.008744
   4.38974     -5.015871
   4.41777     -5.020190
   4.44581     -5.021636
   4.44581     -5.021636
   4.49598     -5.019497
   4.54615     -5.015576
   4.59632     -5.014706
   4.64649     -5.010022
   4.69666     -4.939468
   4.74683     -4.816789
   4.79700     -4.700130
   4.84717     -4.596865
   4.89734     -4.497186
   4.94751     -4.379754
   4.99768     -4.224041
   5.04785     -4.028084
   5.09803     -3.804730
   5.14820     -3.568909
   5.19837     -3.333704
   5.24854     -3.110997
   5.29871     -2.912990
   5.34888     -2.756421
   5.39905     -2.685105
 
# Band-Index   22
   5.39905     -2.685094
   5.34888     -2.693038
   5.29871     -2.716468
   5.24854     -2.754317
   5.19837     -2.804917
   5.14820     -2.866168
   5.09803     -2.935705
   5.04785     -3.011062
   4.99768     -3.089790
   4.94751     -3.246171
   4.89734     -3.495463
   4.84717     -3.736784
   4.79700     -3.956652
   4.74683     -4.143490
   4.69666     -4.288164
   4.64649     -4.385917
   4.59632     -4.437961
   4.54615     -4.454094
   4.49598     -4.452069
   4.44581     -4.449058
   4.44581     -4.449058
   4.41777     -4.448950
   4.38974     -4.448811
   4.36170     -4.449235
   4.33367     -4.451331
   4.30563     -4.456908
   4.27760     -4.468641
   4.24956     -4.489934
   4.22152     -4.523918
   4.19349     -4.571442
   4.16545     -4.629485
   4.13742     -4.690856
   4.10938     -4.742516
   4.08135     -4.766552
   4.05331     -4.765461
   4.02527     -4.755439
   3.99724     -4.744416
   3.96920     -4.735408
   3.94117     -4.729664
   3.91313     -4.727519
   3.91313     -4.727519
   3.85566     -4.732032
   3.79819     -4.737487
   3.74071     -4.718510
   3.68324     -4.642059
   3.62577     -4.511666
   3.56830     -4.359099
   3.51082     -4.204725
   3.45335     -4.038548
   3.39588     -3.846041
   3.33841     -3.637654
   3.28094     -3.435967
   3.22346     -3.255755
   3.16599     -3.100076
   3.10852     -2.969458
   3.05105     -2.864367
   2.99357     -2.784480
   2.93610     -2.728738
   2.87863     -2.695922
   2.82116     -2.685094
   2.82116     -2.685094
   2.77159     -2.693030
   2.72202     -2.716457
   2.67245     -2.754295
   2.62288     -2.804884
   2.57331     -2.866120
   2.52374     -2.935639
   2.47417     -3.010969
   2.42460     -3.089668
   2.37503     -3.253692
   2.32546     -3.507697
   2.27589     -3.752554
   2.22632     -3.975385
   2.17675     -4.164177
   2.12718     -4.309005
   2.07761     -4.405210
   2.02804     -4.455396
   1.97847     -4.470778
   1.92890     -4.469111
   1.87933     -4.466445
   1.87933     -4.466445
   1.84989     -4.466207
   1.82046     -4.465706
   1.79102     -4.465623
   1.76158     -4.467250
   1.73215     -4.472721
   1.70271     -4.485222
   1.67327     -4.508735
   1.64384     -4.546526
   1.61440     -4.598470
   1.58496     -4.659334
   1.55553     -4.718380
   1.52609     -4.758147
   1.49665     -4.768121
   1.46722     -4.761228
   1.43778     -4.749934
   1.40834     -4.739450
   1.37891     -4.731904
   1.34947     -4.728056
   1.32003     -4.727742
   1.32003     -4.727742
   1.26396     -4.732902
   1.20789     -4.732298
   1.15182     -4.697747
   1.09575     -4.604402
   1.03968     -4.469889
   0.98361     -4.322351
   0.92753     -4.168599
   0.87146     -3.995265
   0.81539     -3.799170
   0.75932     -3.594472
   0.70325     -3.400652
   0.64718     -3.228913
   0.59110     -3.081396
   0.53503     -2.958435
   0.47896     -2.863842
   0.42289     -2.823544
   0.36682     -2.774238
   0.31075     -2.713018
   0.25468     -2.685195
   0.25468     -2.685195
   0.24127     -2.685195
   0.22787     -2.685194
   0.21446     -2.685191
   0.20106     -2.685187
   0.18766     -2.685182
   0.17425     -2.685176
   0.16085     -2.685169
   0.14744     -2.685162
   0.13404     -2.685155
   0.12064     -2.685146
   0.10723     -2.685138
   0.09383     -2.685131
   0.08042     -2.685114
   0.06702     -2.685108
   0.05362     -2.685104
   0.04021     -2.685098
   0.02681     -2.685096
   0.01340     -2.685095
   0.00000     -2.685094
 
# Band-Index   23
   0.00000     -2.456191
   0.01340     -2.465325
   0.02681     -2.490907
   0.04021     -2.528836
   0.05362     -2.574887
   0.06702     -2.625760
   0.08042     -2.679122
   0.09383     -2.685121
   0.10723     -2.685127
   0.12064     -2.685135
   0.13404     -2.685144
   0.14744     -2.685151
   0.16085     -2.685158
   0.17425     -2.685165
   0.18766     -2.685171
   0.20106     -2.685176
   0.21446     -2.685180
   0.22787     -2.685183
   0.24127     -2.685184
   0.25468     -2.685185
   0.25468     -2.685185
   0.31075     -2.695481
   0.36682     -2.726542
   0.42289     -2.778343
   0.47896     -2.833722
   0.53503     -2.851710
   0.59110     -2.891472
   0.64718     -2.994214
   0.70325     -3.170725
   0.75932     -3.379105
   0.81539     -3.583881
   0.87146     -3.775577
   0.92753     -3.946144
   0.98361     -4.073982
   1.03968     -4.134512
   1.09575     -4.130106
   1.15182     -4.083612
   1.20789     -4.020220
   1.26396     -3.962879
   1.32003     -3.931611
   1.32003     -3.931612
   1.34947     -3.929734
   1.37891     -3.937428
   1.40834     -3.952614
   1.43778     -3.972617
   1.46722     -3.994745
   1.49665     -4.016460
   1.52609     -4.035253
   1.55553     -4.048361
   1.58496     -4.052472
   1.61440     -4.043715
   1.64384     -4.018597
   1.67327     -3.976214
   1.70271     -3.919944
   1.73215     -3.856380
   1.76158     -3.792817
   1.79102     -3.735723
   1.82046     -3.690435
   1.84989     -3.661218
   1.87933     -3.651095
   1.87933     -3.651095
   1.92890     -3.645454
   1.97847     -3.628627
   2.02804     -3.600913
   2.07761     -3.562811
   2.12718     -3.515018
   2.17675     -3.458432
   2.22632     -3.394155
   2.27589     -3.323502
   2.32546     -3.248001
   2.37503     -3.169403
   2.42460     -3.005937
   2.47417     -2.783285
   2.52374     -2.602351
   2.57331     -2.471711
   2.62288     -2.394052
   2.67245     -2.366279
   2.72202     -2.380233
   2.77159     -2.423248
   2.82116     -2.456191
   2.82116     -2.456191
   2.87863     -2.413824
   2.93610     -2.366258
   2.99357     -2.362301
   3.05105     -2.419873
   3.10852     -2.545311
   3.16599     -2.730720
   3.22346     -2.959192
   3.28094     -3.202908
   3.33841     -3.434947
   3.39588     -3.646326
   3.45335     -3.838363
   3.51082     -4.000186
   3.56830     -4.101322
   3.62577     -4.126859
   3.68324     -4.097129
   3.74071     -4.039834
   3.79819     -3.979814
   3.85566     -3.939097
   3.91313     -3.929766
   3.91313     -3.929766
   3.94117     -3.935443
   3.96920     -3.946684
   3.99724     -3.962386
   4.02527     -3.980872
   4.05331     -4.000131
   4.08135     -4.018061
   4.10938     -4.032412
   4.13742     -4.040608
   4.16545     -4.039585
   4.19349     -4.026019
   4.22152     -3.997435
   4.24956     -3.954038
   4.27760     -3.899539
   4.30563     -3.839859
   4.33367     -3.781180
   4.36170     -3.728928
   4.38974     -3.687591
   4.41777     -3.660872
   4.44581     -3.651583
   4.44581     -3.651583
   4.49598     -3.645935
   4.54615     -3.629093
   4.59632     -3.601353
   4.64649     -3.563221
   4.69666     -3.515388
   4.74683     -3.458758
   4.79700     -3.394434
   4.84717     -3.323737
   4.89734     -3.248193
   4.94751     -3.169558
   4.99768     -3.006023
   5.04785     -2.794993
   5.09803     -2.626575
   5.14820     -2.503628
   5.19837     -2.424951
   5.24854     -2.388296
   5.29871     -2.391092
   5.34888     -2.426121
   5.39905     -2.456191
 
# Band-Index   24
   5.39905     -1.908211
   5.34888     -1.905711
   5.29871     -1.899283
   5.24854     -1.894617
   5.19837     -1.906669
   5.14820     -1.975765
   5.09803     -2.160988
   5.04785     -2.388838
   4.99768     -2.597787
   4.94751     -2.773406
   4.89734     -2.917352
   4.84717     -3.033477
   4.79700     -3.126172
   4.74683     -3.201564
   4.69666     -3.266547
   4.64649     -3.326327
   4.59632     -3.382252
   4.54615     -3.430982
   4.49598     -3.465444
   4.44581     -3.478055
   4.44581     -3.478055
   4.41777     -3.477083
   4.38974     -3.474693
   4.36170     -3.471866
   4.33367     -3.469315
   4.30563     -3.467436
   4.27760     -3.466513
   4.24956     -3.466877
   4.22152     -3.469003
   4.19349     -3.473606
   4.16545     -3.481812
   4.13742     -3.495415
   4.10938     -3.517089
   4.08135     -3.549609
   4.05331     -3.592696
   4.02527     -3.640657
   3.99724     -3.685606
   3.96920     -3.721501
   3.94117     -3.745129
   3.91313     -3.755641
   3.91313     -3.755641
   3.85566     -3.737015
   3.79819     -3.665127
   3.74071     -3.549754
   3.68324     -3.409984
   3.62577     -3.277914
   3.56830     -3.184381
   3.51082     -3.116075
   3.45335     -3.050399
   3.39588     -2.970859
   3.33841     -2.865233
   3.28094     -2.726191
   3.22346     -2.549534
   3.16599     -2.333975
   3.10852     -2.104479
   3.05105     -1.971002
   2.99357     -1.934997
   2.93610     -1.918904
   2.87863     -1.910683
   2.82116     -1.908211
   2.82116     -1.908211
   2.77159     -1.908951
   2.72202     -1.911884
   2.67245     -1.919687
   2.62288     -1.939250
   2.57331     -1.997886
   2.52374     -2.160856
   2.47417     -2.377554
   2.42460     -2.580786
   2.37503     -2.755064
   2.32546     -2.899864
   2.27589     -3.016720
   2.22632     -3.108532
   2.17675     -3.180668
   2.12718     -3.240007
   2.07761     -3.292419
   2.02804     -3.340339
   1.97847     -3.381694
   1.92890     -3.410808
   1.87933     -3.421433
   1.87933     -3.421433
   1.84989     -3.420641
   1.82046     -3.418671
   1.79102     -3.416337
   1.76158     -3.414333
   1.73215     -3.413142
   1.70271     -3.413175
   1.67327     -3.414929
   1.64384     -3.419137
   1.61440     -3.426978
   1.58496     -3.440483
   1.55553     -3.463137
   1.52609     -3.499480
   1.49665     -3.550470
   1.46722     -3.608776
   1.43778     -3.664174
   1.40834     -3.709379
   1.37891     -3.740314
   1.34947     -3.755049
   1.32003     -3.753114
   1.32003     -3.753113
   1.26396     -3.705984
   1.20789     -3.610810
   1.15182     -3.481072
   1.09575     -3.337013
   1.03968     -3.218789
   0.98361     -3.138956
   0.92753     -3.072715
   0.87146     -3.005835
   0.81539     -2.928892
   0.75932     -2.834092
   0.70325     -2.712243
   0.64718     -2.542807
   0.59110     -2.306534
   0.53503     -2.024154
   0.47896     -1.742174
   0.42289     -1.540594
   0.36682     -1.388346
   0.31075     -1.272496
   0.25468     -1.217211
   0.25468     -1.217211
   0.24127     -1.217219
   0.22787     -1.217244
   0.21446     -1.217283
   0.20106     -1.217338
   0.18766     -1.239019
   0.17425     -1.281285
   0.16085     -1.328637
   0.14744     -1.380179
   0.13404     -1.435044
   0.12064     -1.492384
   0.10723     -1.551351
   0.09383     -1.611042
   0.08042     -1.670434
   0.06702     -1.728262
   0.05362     -1.782838
   0.04021     -1.831797
   0.02681     -1.871820
   0.01340     -1.898662
   0.00000     -1.908211
 
# Band-Index   25
   0.00000     -1.218404
   0.01340     -1.218396
   0.02681     -1.218372
   0.04021     -1.218333
   0.05362     -1.218279
   0.06702     -1.218212
   0.08042     -1.218135
   0.09383     -1.218048
   0.10723     -1.217955
   0.12064     -1.217858
   0.13404     -1.217760
   0.14744     -1.217663
   0.16085     -1.217570
   0.17425     -1.217483
   0.18766     -1.217405
   0.20106     -1.217337
   0.21446     -1.217283
   0.22787     -1.217243
   0.24127     -1.217219
   0.25468     -1.217211
   0.25468     -1.217211
   0.31075     -1.223692
   0.36682     -1.243675
   0.42289     -1.400731
   0.47896     -1.653489
   0.53503     -1.826414
   0.59110     -1.948852
   0.64718     -2.014730
   0.70325     -2.024784
   0.75932     -2.051625
   0.81539     -2.235883
   0.87146     -2.450221
   0.92753     -2.665743
   0.98361     -2.872976
   1.03968     -3.057662
   1.09575     -3.191827
   1.15182     -3.280352
   1.20789     -3.350201
   1.26396     -3.401995
   1.32003     -3.425358
   1.32003     -3.425359
   1.34947     -3.423946
   1.37891     -3.414342
   1.40834     -3.398738
   1.43778     -3.378568
   1.46722     -3.352895
   1.49665     -3.317228
   1.52609     -3.263991
   1.55553     -3.188494
   1.58496     -3.094321
   1.61440     -2.988671
   1.64384     -2.877710
   1.67327     -2.766231
   1.70271     -2.658323
   1.73215     -2.557765
   1.76158     -2.468229
   1.79102     -2.393321
   1.82046     -2.336511
   1.84989     -2.300898
   1.87933     -2.288745
   1.87933     -2.288745
   1.92890     -2.280562
   1.97847     -2.256187
   2.02804     -2.216133
   2.07761     -2.161244
   2.12718     -2.092679
   2.17675     -2.011905
   2.22632     -1.920725
   2.27589     -1.884050
   2.32546     -1.884954
   2.37503     -1.885105
   2.42460     -1.883366
   2.47417     -1.875773
   2.52374     -1.849120
   2.57331     -1.751115
   2.62288     -1.558246
   2.67245     -1.385472
   2.72202     -1.289369
   2.77159     -1.236522
   2.82116     -1.218404
   2.82116     -1.218404
   2.87863     -1.242846
   2.93610     -1.314416
   2.99357     -1.459072
   3.05105     -1.683584
   3.10852     -1.831887
   3.16599     -1.862642
   3.22346     -1.872013
   3.28094     -1.919347
   3.33841     -2.081712
   3.39588     -2.291210
   3.45335     -2.509770
   3.51082     -2.725448
   3.56830     -2.926739
   3.62577     -3.093592
   3.68324     -3.209460
   3.74071     -3.294824
   3.79819     -3.363615
   3.85566     -3.410253
   3.91313     -3.425883
   3.91313     -3.425883
   3.94117     -3.422302
   3.96920     -3.412621
   3.99724     -3.397166
   4.02527     -3.374617
   4.05331     -3.341293
   4.08135     -3.291852
   4.10938     -3.223159
   4.13742     -3.137447
   4.16545     -3.039922
   4.19349     -2.935666
   4.22152     -2.828905
   4.24956     -2.723271
   4.27760     -2.622121
   4.30563     -2.528720
   4.33367     -2.446286
   4.36170     -2.377952
   4.38974     -2.326631
   4.41777     -2.294744
   4.44581     -2.283920
   4.44581     -2.283920
   4.49598     -2.275736
   4.54615     -2.251354
   4.59632     -2.211284
   4.64649     -2.156360
   4.69666     -2.087729
   4.74683     -2.006837
   4.79700     -1.915448
   4.84717     -1.866406
   4.89734     -1.883019
   4.94751     -1.890938
   4.99768     -1.888942
   5.04785     -1.874477
   5.09803     -1.840215
   5.14820     -1.748743
   5.19837     -1.561752
   5.24854     -1.387717
   5.29871     -1.289850
   5.34888     -1.236561
   5.39905     -1.218404
 
# Band-Index   26
   5.39905     -1.218404
   5.34888     -1.223409
   5.29871     -1.238253
   5.24854     -1.262453
   5.19837     -1.308315
   5.14820     -1.342656
   5.09803     -1.383389
   5.04785     -1.438799
   4.99768     -1.509295
   4.94751     -1.604420
   4.89734     -1.710457
   4.84717     -1.815714
   4.79700     -1.841444
   4.74683     -1.808020
   4.69666     -1.766296
   4.64649     -1.797939
   4.59632     -1.824854
   4.54615     -1.844449
   4.49598     -1.856355
   4.44581     -1.860348
   4.44581     -1.860348
   4.41777     -1.873635
   4.38974     -1.911570
   4.36170     -1.969818
   4.33367     -2.043799
   4.30563     -2.129557
   4.27760     -2.223783
   4.24956     -2.323661
   4.22152     -2.426719
   4.19349     -2.530726
   4.16545     -2.633619
   4.13742     -2.733445
   4.10938     -2.828320
   4.08135     -2.916385
   4.05331     -2.995788
   4.02527     -3.064680
   3.99724     -3.121281
   3.96920     -3.164021
   3.94117     -3.191809
   3.91313     -3.204321
   3.91313     -3.204321
   3.85566     -3.185046
   3.79819     -3.114701
   3.74071     -3.005161
   3.68324     -2.866655
   3.62577     -2.707947
   3.56830     -2.536795
   3.51082     -2.360160
   3.45335     -2.184263
   3.39588     -2.014483
   3.33841     -1.855103
   3.28094     -1.768463
   3.22346     -1.634740
   3.16599     -1.504962
   3.10852     -1.410794
   3.05105     -1.346862
   2.99357     -1.283544
   2.93610     -1.246267
   2.87863     -1.225262
   2.82116     -1.218404
   2.82116     -1.218404
   2.77159     -1.223428
   2.72202     -1.238336
   2.67245     -1.262672
   2.62288     -1.314056
   2.57331     -1.354229
   2.52374     -1.385472
   2.47417     -1.443181
   2.42460     -1.516895
   2.37503     -1.611932
   2.32546     -1.716819
   2.27589     -1.821372
   2.22632     -1.881904
   2.17675     -1.876980
   2.12718     -1.867532
   2.07761     -1.852776
   2.02804     -1.833989
   1.97847     -1.839351
   1.92890     -1.851259
   1.87933     -1.855253
   1.87933     -1.855253
   1.84989     -1.874197
   1.82046     -1.919520
   1.79102     -1.983159
   1.76158     -2.061958
   1.73215     -2.152870
   1.70271     -2.252726
   1.67327     -2.358470
   1.64384     -2.467283
   1.61440     -2.576574
   1.58496     -2.683934
   1.55553     -2.787067
   1.52609     -2.883709
   1.49665     -2.971574
   1.46722     -3.048306
   1.43778     -3.111554
   1.40834     -3.159245
   1.37891     -3.190115
   1.34947     -3.204097
   1.32003     -3.202128
   1.32003     -3.202129
   1.26396     -3.159238
   1.20789     -3.073367
   1.15182     -2.954215
   1.09575     -2.810829
   1.03968     -2.651235
   0.98361     -2.482501
   0.92753     -2.310977
   0.87146     -2.142688
   0.81539     -1.986592
   0.75932     -1.926055
   0.70325     -1.788671
   0.64718     -1.612180
   0.59110     -1.483628
   0.53503     -1.395255
   0.47896     -1.327833
   0.42289     -1.277679
   0.36682     -1.150859
   0.31075     -1.110167
   0.25468     -1.133930
   0.25468     -1.133930
   0.24127     -1.138413
   0.22787     -1.151709
   0.21446     -1.173377
   0.20106     -1.202752
   0.18766     -1.217405
   0.17425     -1.217483
   0.16085     -1.217570
   0.14744     -1.217663
   0.13404     -1.217760
   0.12064     -1.217858
   0.10723     -1.217955
   0.09383     -1.218048
   0.08042     -1.218134
   0.06702     -1.218212
   0.05362     -1.218279
   0.04021     -1.218332
   0.02681     -1.218372
   0.01340     -1.218396
   0.00000     -1.218404
 
# Band-Index   27
   0.00000     -0.889791
   0.01340     -0.889800
   0.02681     -0.889824
   0.04021     -0.889863
   0.05362     -0.889919
   0.06702     -0.889986
   0.08042     -0.890065
   0.09383     -0.890152
   0.10723     -0.890247
   0.12064     -0.890346
   0.13404     -0.890447
   0.14744     -0.890546
   0.16085     -0.890641
   0.17425     -0.890730
   0.18766     -0.890809
   0.20106     -0.890877
   0.21446     -0.890932
   0.22787     -0.890973
   0.24127     -0.890997
   0.25468     -0.891005
   0.25468     -0.891005
   0.31075     -0.959704
   0.36682     -1.074968
   0.42289     -1.061170
   0.47896     -1.132160
   0.53503     -1.259832
   0.59110     -1.408954
   0.64718     -1.555901
   0.70325     -1.684353
   0.75932     -1.817269
   0.81539     -1.863960
   0.87146     -1.786808
   0.92753     -1.700397
   0.98361     -1.620241
   1.03968     -1.553522
   1.09575     -1.503577
   1.15182     -1.471139
   1.20789     -1.455471
   1.26396     -1.454923
   1.32003     -1.467180
   1.32003     -1.467180
   1.34947     -1.477847
   1.37891     -1.490913
   1.40834     -1.505996
   1.43778     -1.522731
   1.46722     -1.540775
   1.49665     -1.559806
   1.52609     -1.579530
   1.55553     -1.599679
   1.58496     -1.620005
   1.61440     -1.640295
   1.64384     -1.660361
   1.67327     -1.680046
   1.70271     -1.699225
   1.73215     -1.717806
   1.76158     -1.735744
   1.79102     -1.753068
   1.82046     -1.769913
   1.84989     -1.785894
   1.87933     -1.794834
   1.87933     -1.794834
   1.92890     -1.800275
   1.97847     -1.814808
   2.02804     -1.819749
   2.07761     -1.792816
   2.12718     -1.759050
   2.17675     -1.719069
   2.22632     -1.673575
   2.27589     -1.623247
   2.32546     -1.568420
   2.37503     -1.507931
   2.42460     -1.435687
   2.47417     -1.344687
   2.52374     -1.355528
   2.57331     -1.336812
   2.62288     -1.295750
   2.67245     -1.212587
   2.72202     -1.058807
   2.77159     -0.935518
   2.82116     -0.889791
   2.82116     -0.889791
   2.87863     -0.951095
   2.93610     -1.108256
   2.99357     -1.267102
   3.05105     -1.329431
   3.10852     -1.349730
   3.16599     -1.419085
   3.22346     -1.568659
   3.28094     -1.707965
   3.33841     -1.808783
   3.39588     -1.810321
   3.45335     -1.800176
   3.51082     -1.778956
   3.56830     -1.744910
   3.62577     -1.698543
   3.68324     -1.643838
   3.74071     -1.587426
   3.79819     -1.536471
   3.85566     -1.496486
   3.91313     -1.470146
   3.91313     -1.470146
   3.94117     -1.462309
   3.96920     -1.457540
   3.99724     -1.455574
   4.02527     -1.456108
   4.05331     -1.458817
   4.08135     -1.463373
   4.10938     -1.469462
   4.13742     -1.476788
   4.16545     -1.485080
   4.19349     -1.494100
   4.22152     -1.503641
   4.24956     -1.513532
   4.27760     -1.523631
   4.30563     -1.533806
   4.33367     -1.543903
   4.36170     -1.553636
   4.38974     -1.562372
   4.41777     -1.568840
   4.44581     -1.571303
   4.44581     -1.571303
   4.49598     -1.584100
   4.54615     -1.618692
   4.59632     -1.666298
   4.64649     -1.717766
   4.69666     -1.764218
   4.74683     -1.724330
   4.79700     -1.679021
   4.84717     -1.629048
   4.89734     -1.574892
   4.94751     -1.515530
   4.99768     -1.443355
   5.04785     -1.349118
   5.09803     -1.336454
   5.14820     -1.335805
   5.19837     -1.295266
   5.24854     -1.210384
   5.29871     -1.058434
   5.34888     -0.935482
   5.39905     -0.889791
 
# Band-Index   28
   5.39905     -0.889780
   5.34888     -0.901318
   5.29871     -0.935291
   5.24854     -0.989945
   5.19837     -1.062560
   5.14820     -1.149681
   5.09803     -1.247141
   5.04785     -1.305043
   4.99768     -1.260623
   4.94751     -1.211508
   4.89734     -1.162969
   4.84717     -1.118270
   4.79700     -1.079358
   4.74683     -1.047334
   4.69666     -1.022815
   4.64649     -1.006173
   4.59632     -0.997345
   4.54615     -0.995136
   4.49598     -0.996582
   4.44581     -0.997721
   4.44581     -0.997721
   4.41777     -0.991609
   4.38974     -0.974141
   4.36170     -0.947483
   4.33367     -0.914186
   4.30563     -0.876473
   4.27760     -0.835989
   4.24956     -0.793854
   4.22152     -0.750792
   4.19349     -0.707301
   4.16545     -0.663763
   4.13742     -0.620544
   4.10938     -0.578049
   4.08135     -0.536767
   4.05331     -0.497299
   4.02527     -0.460357
   3.99724     -0.426760
   3.96920     -0.397398
   3.94117     -0.373160
   3.91313     -0.354864
   3.91313     -0.354864
   3.85566     -0.338310
   3.79819     -0.351057
   3.74071     -0.390817
   3.68324     -0.453432
   3.62577     -0.534798
   3.56830     -0.631065
   3.51082     -0.738098
   3.45335     -0.851233
   3.39588     -0.965411
   3.33841     -1.075331
   3.28094     -1.175441
   3.22346     -1.259677
   3.16599     -1.320868
   3.10852     -1.268323
   3.05105     -1.136077
   2.99357     -1.029682
   2.93610     -0.952293
   2.87863     -0.905448
   2.82116     -0.889780
   2.82116     -0.889780
   2.77159     -0.901291
   2.72202     -0.935199
   2.67245     -0.989713
   2.62288     -1.062056
   2.57331     -1.148648
   2.52374     -1.245024
   2.47417     -1.329043
   2.42460     -1.283425
   2.37503     -1.225217
   2.32546     -1.159140
   2.27589     -1.088758
   2.22632     -1.016990
   2.17675     -0.946463
   2.12718     -0.879716
   2.07761     -0.819298
   2.02804     -0.767852
   1.97847     -0.728112
   1.92890     -0.702779
   1.87933     -0.694041
   1.87933     -0.694041
   1.84989     -0.689492
   1.82046     -0.676494
   1.79102     -0.656688
   1.76158     -0.632079
   1.73215     -0.604480
   1.70271     -0.575281
   1.67327     -0.545435
   1.64384     -0.515595
   1.61440     -0.486236
   1.58496     -0.457791
   1.55553     -0.430733
   1.52609     -0.405629
   1.49665     -0.383205
   1.46722     -0.364337
   1.43778     -0.350056
   1.40834     -0.341477
   1.37891     -0.339714
   1.34947     -0.345717
   1.32003     -0.360111
   1.32003     -0.360111
   1.26396     -0.410893
   1.20789     -0.488199
   1.15182     -0.582653
   1.09575     -0.682645
   1.03968     -0.776930
   0.98361     -0.856576
   0.92753     -0.916718
   0.87146     -0.957301
   0.81539     -0.981985
   0.75932     -0.995966
   0.70325     -1.004208
   0.64718     -1.010550
   0.59110     -1.017492
   0.53503     -1.026353
   0.47896     -1.037155
   0.42289     -1.020846
   0.36682     -0.950534
   0.31075     -0.905959
   0.25468     -0.890994
   0.25468     -0.890994
   0.24127     -0.890985
   0.22787     -0.890961
   0.21446     -0.890921
   0.20106     -0.890866
   0.18766     -0.890798
   0.17425     -0.890718
   0.16085     -0.890629
   0.14744     -0.890535
   0.13404     -0.890436
   0.12064     -0.890335
   0.10723     -0.890236
   0.09383     -0.890141
   0.08042     -0.890053
   0.06702     -0.889975
   0.05362     -0.889907
   0.04021     -0.889851
   0.02681     -0.889812
   0.01340     -0.889788
   0.00000     -0.889780
 
# Band-Index   29
   0.00000      0.686703
   0.01340      0.684741
   0.02681      0.678926
   0.04021      0.669333
   0.05362      0.656102
   0.06702      0.639444
   0.08042      0.619641
   0.09383      0.597045
   0.10723      0.572085
   0.12064      0.545269
   0.13404      0.517190
   0.14744      0.488533
   0.16085      0.460060
   0.17425      0.432616
   0.18766      0.407108
   0.20106      0.384481
   0.21446      0.365661
   0.22787      0.351500
   0.24127      0.342698
   0.25468      0.339711
   0.25468      0.339711
   0.31075      0.386161
   0.36682      0.508582
   0.42289      0.675297
   0.47896      0.859402
   0.53503      1.041135
   0.59110      1.206012
   0.64718      1.342984
   0.70325      1.443450
   0.75932      1.501956
   0.81539      1.518643
   0.87146      1.501130
   0.92753      1.462547
   0.98361      1.417035
   1.03968      1.376243
   1.09575      1.347860
   1.15182      1.335243
   1.20789      1.338386
   1.26396      1.356858
   1.32003      1.387413
   1.32003      1.387410
   1.34947      1.392807
   1.37891      1.371692
   1.40834      1.331894
   1.43778      1.282241
   1.46722      1.225882
   1.49665      1.164313
   1.52609      1.098638
   1.55553      1.029832
   1.58496      0.958820
   1.61440      0.886530
   1.64384      0.814026
   1.67327      0.742554
   1.70271      0.673665
   1.73215      0.609258
   1.76158      0.551575
   1.79102      0.503084
   1.82046      0.466241
   1.84989      0.443166
   1.87933      0.435296
   1.87933      0.435296
   1.92890      0.458198
   1.97847      0.524060
   2.02804      0.625388
   2.07761      0.752100
   2.12718      0.893064
   2.17675      1.036687
   2.22632      1.170933
   2.27589      1.283623
   2.32546      1.363625
   2.37503      1.402857
   2.42460      1.397950
   2.47417      1.350329
   2.52374      1.265627
   2.57331      1.153144
   2.62288      1.025510
   2.67245      0.898179
   2.72202      0.788443
   2.77159      0.713453
   2.82116      0.686703
   2.82116      0.686703
   2.87863      0.723023
   2.93610      0.822667
   2.99357      0.963443
   3.05105      1.120512
   3.10852      1.272516
   3.16599      1.403488
   3.22346      1.502622
   3.28094      1.563855
   3.33841      1.586102
   3.39588      1.573922
   3.45335      1.536906
   3.51082      1.487139
   3.56830      1.436216
   3.62577      1.393346
   3.68324      1.364415
   3.74071      1.352014
   3.79819      1.356780
   3.85566      1.378237
   3.91313      1.392566
   3.91313      1.392566
   3.94117      1.377217
   3.96920      1.350337
   3.99724      1.316453
   4.02527      1.277081
   4.05331      1.232865
   4.08135      1.184274
   4.10938      1.131808
   4.13742      1.076007
   4.16545      1.017510
   4.19349      0.957053
   4.22152      0.895540
   4.24956      0.834107
   4.27760      0.774213
   4.30563      0.717684
   4.33367      0.666674
   4.36170      0.623546
   4.38974      0.590640
   4.41777      0.569973
   4.44581      0.562922
   4.44581      0.562922
   4.49598      0.582133
   4.54615      0.637756
   4.59632      0.724196
   4.64649      0.833173
   4.69666      0.954926
   4.74683      1.079060
   4.79700      1.194898
   4.84717      1.291680
   4.89734      1.359337
   4.94751      1.390309
   4.99768      1.381163
   5.04785      1.332799
   5.09803      1.249902
   5.14820      1.140668
   5.19837      1.016744
   5.24854      0.892896
   5.29871      0.785968
   5.34888      0.712811
   5.39905      0.686703
 
# Band-Index   30
   5.39905      2.031677
   5.34888      2.075136
   5.29871      2.194314
   5.24854      2.361245
   5.19837      2.539570
   5.14820      2.684491
   5.09803      2.742746
   5.04785      2.691463
   4.99768      2.571540
   4.94751      2.432064
   4.89734      2.299693
   4.84717      2.185405
   4.79700      2.091643
   4.74683      2.016847
   4.69666      1.958236
   4.64649      1.912991
   4.59632      1.878790
   4.54615      1.854271
   4.49598      1.839229
   4.44581      1.834125
   4.44581      1.834125
   4.41777      1.843094
   4.38974      1.869675
   4.36170      1.912775
   4.33367      1.970384
   4.30563      2.038879
   4.27760      2.110546
   4.24956      2.164442
   4.22152      2.166948
   4.19349      2.126646
   4.16545      2.066894
   4.13742      1.997324
   4.10938      1.922558
   4.08135      1.845896
   4.05331      1.770211
   4.02527      1.698148
   3.99724      1.632223
   3.96920      1.575030
   3.94117      1.530082
   3.91313      1.503805
   3.91313      1.503806
   3.85566      1.525745
   3.79819      1.605181
   3.74071      1.724529
   3.68324      1.882607
   3.62577      2.073883
   3.56830      2.290496
   3.51082      2.522756
   3.45335      2.678411
   3.39588      2.677004
   3.33841      2.705865
   3.28094      2.770061
   3.22346      2.855814
   3.16599      2.918189
   3.10852      2.869657
   3.05105      2.694386
   2.99357      2.467861
   2.93610      2.250667
   2.87863      2.091120
   2.82116      2.031677
   2.82116      2.031677
   2.77159      2.075707
   2.72202      2.197153
   2.67245      2.370097
   2.62288      2.562550
   2.57331      2.734199
   2.52374      2.813264
   2.47417      2.742725
   2.42460      2.591760
   2.37503      2.424986
   2.32546      2.268343
   2.27589      2.132560
   2.22632      2.022106
   2.17675      1.938374
   2.12718      1.881348
   2.07761      1.850027
   2.02804      1.842011
   1.97847      1.852517
   1.92890      1.871787
   1.87933      1.882345
   1.87933      1.882345
   1.84989      1.893405
   1.82046      1.926028
   1.79102      1.978214
   1.76158      2.045089
   1.73215      2.111197
   1.70271      2.140222
   1.67327      2.130171
   1.64384      2.099039
   1.61440      2.052715
   1.58496      1.994082
   1.55553      1.926111
   1.52609      1.852324
   1.49665      1.776371
   1.46722      1.701922
   1.43778      1.632471
   1.40834      1.571599
   1.37891      1.524274
   1.34947      1.501005
   1.32003      1.511299
   1.32003      1.511297
   1.26396      1.576851
   1.20789      1.673102
   1.15182      1.804181
   1.09575      1.971052
   1.03968      2.169034
   0.98361      2.391377
   0.92753      2.630366
   0.87146      2.741886
   0.81539      2.752015
   0.75932      2.800889
   0.70325      2.889820
   0.64718      3.001968
   0.59110      2.995364
   0.53503      2.792258
   0.47896      2.548945
   0.42289      2.306122
   0.36682      2.091726
   0.31075      1.939456
   0.25468      1.883491
   0.25468      1.883491
   0.24127      1.884161
   0.22787      1.886169
   0.21446      1.889515
   0.20106      1.894191
   0.18766      1.900169
   0.17425      1.907450
   0.16085      1.915967
   0.14744      1.925654
   0.13404      1.936385
   0.12064      1.948020
   0.10723      1.960302
   0.09383      1.972935
   0.08042      1.985545
   0.06702      1.997661
   0.05362      2.008745
   0.04021      2.018215
   0.02681      2.025492
   0.01340      2.030088
   0.00000      2.031677
 
# Band-Index   31
   0.00000      2.704017
   0.01340      2.706389
   0.02681      2.713398
   0.04021      2.724640
   0.05362      2.739533
   0.06702      2.757381
   0.08042      2.777444
   0.09383      2.798991
   0.10723      2.821330
   0.12064      2.843825
   0.13404      2.865894
   0.14744      2.887037
   0.16085      2.906787
   0.17425      2.924736
   0.18766      2.940539
   0.20106      2.953900
   0.21446      2.964548
   0.22787      2.972288
   0.24127      2.976996
   0.25468      2.978575
   0.25468      2.978575
   0.31075      3.018395
   0.36682      3.131110
   0.42289      3.297851
   0.47896      3.477603
   0.53503      3.439437
   0.59110      3.283106
   0.64718      3.306651
   0.70325      3.397909
   0.75932      3.325519
   0.81539      3.121706
   0.87146      2.879629
   0.92753      2.765317
   0.98361      2.808709
   1.03968      2.863832
   1.09575      2.918911
   1.15182      2.961482
   1.20789      2.982430
   1.26396      2.987652
   1.32003      2.999104
   1.32003      2.999105
   1.34947      3.013291
   1.37891      3.031926
   1.40834      3.049691
   1.43778      3.057249
   1.46722      3.043727
   1.49665      3.003054
   1.52609      2.936603
   1.55553      2.849112
   1.58496      2.745859
   1.61440      2.632314
   1.64384      2.514474
   1.67327      2.399373
   1.70271      2.298033
   1.73215      2.234379
   1.76158      2.212700
   1.79102      2.202927
   1.82046      2.195392
   1.84989      2.190023
   1.87933      2.188050
   1.87933      2.188050
   1.92890      2.218288
   1.97847      2.296804
   2.02804      2.406316
   2.07761      2.537520
   2.12718      2.686105
   2.17675      2.849890
   2.22632      3.026824
   2.27589      3.210232
   2.32546      3.366604
   2.37503      3.417381
   2.42460      3.378684
   2.47417      3.294995
   2.52374      3.209964
   2.57331      3.143973
   2.62288      3.040879
   2.67245      2.915329
   2.72202      2.804403
   2.77159      2.730067
   2.82116      2.704017
   2.82116      2.704017
   2.87863      2.738841
   2.93610      2.837031
   2.99357      2.981831
   3.05105      3.150508
   3.10852      3.316764
   3.16599      3.449357
   3.22346      3.510119
   3.28094      3.442720
   3.33841      3.257982
   3.39588      3.024940
   3.45335      2.786345
   3.51082      2.739789
   3.56830      2.805821
   3.62577      2.889135
   3.68324      2.972385
   3.74071      3.032869
   3.79819      3.049774
   3.85566      3.031925
   3.91313      3.004049
   3.91313      3.004050
   3.94117      2.988973
   3.96920      2.970768
   3.99724      2.946597
   4.02527      2.913376
   4.05331      2.868665
   4.08135      2.811179
   4.10938      2.741092
   4.13742      2.660113
   4.16545      2.571560
   4.19349      2.481081
   4.22152      2.400222
   4.24956      2.354941
   4.27760      2.356939
   4.30563      2.375972
   4.33367      2.394602
   4.36170      2.408555
   4.38974      2.417462
   4.41777      2.422167
   4.44581      2.423609
   4.44581      2.423609
   4.49598      2.431486
   4.54615      2.456510
   4.59632      2.502068
   4.64649      2.572025
   4.69666      2.669275
   4.74683      2.795128
   4.79700      2.948939
   4.84717      3.126842
   4.89734      3.317603
   4.94751      3.487330
   4.99768      3.557268
   5.04785      3.515616
   5.09803      3.407359
   5.14820      3.251052
   5.19837      3.082999
   5.24854      2.930148
   5.29871      2.808911
   5.34888      2.730940
   5.39905      2.704017
 
# Band-Index   32
   5.39905      4.381747
   5.34888      4.332237
   5.29871      4.213083
   5.24854      4.052551
   5.19837      3.880906
   5.14820      3.738244
   5.09803      3.677702
   5.04785      3.718048
   4.99768      3.762432
   4.94751      3.740564
   4.89734      3.705148
   4.84717      3.651750
   4.79700      3.579879
   4.74683      3.497818
   4.69666      3.414027
   4.64649      3.335401
   4.59632      3.267508
   4.54615      3.214961
   4.49598      3.181602
   4.44581      3.170143
   4.44581      3.170143
   4.41777      3.180910
   4.38974      3.212756
   4.36170      3.263986
   4.33367      3.331220
   4.30563      3.408865
   4.27760      3.488453
   4.24956      3.559171
   4.22152      3.610641
   4.19349      3.638717
   4.16545      3.648121
   4.13742      3.647353
   4.10938      3.643140
   4.08135      3.638828
   4.05331      3.633921
   4.02527      3.620787
   3.99724      3.588611
   3.96920      3.548098
   3.94117      3.510673
   3.91313      3.478724
   3.91313      3.478725
   3.85566      3.428878
   3.79819      3.400880
   3.74071      3.409831
   3.68324      3.463161
   3.62577      3.547645
   3.56830      3.650365
   3.51082      3.761215
   3.45335      3.867355
   3.39588      3.949312
   3.33841      3.985173
   3.28094      3.947571
   3.22346      3.802699
   3.16599      3.666308
   3.10852      3.651358
   3.05105      3.779436
   2.99357      3.971388
   2.93610      4.165685
   2.87863      4.316871
   2.82116      4.381747
   2.82116      4.381747
   2.77159      4.332261
   2.72202      4.212931
   2.67245      4.053290
   2.62288      3.889141
   2.57331      3.777118
   2.52374      3.779096
   2.47417      3.864517
   2.42460      3.904305
   2.37503      3.749714
   2.32546      3.601293
   2.27589      3.538883
   2.22632      3.502247
   2.17675      3.467777
   2.12718      3.434544
   2.07761      3.404487
   2.02804      3.379390
   1.97847      3.360559
   1.92890      3.348912
   1.87933      3.344989
   1.87933      3.344989
   1.84989      3.353851
   1.82046      3.379331
   1.79102      3.417578
   1.76158      3.460767
   1.73215      3.496493
   1.70271      3.512283
   1.67327      3.505081
   1.64384      3.482786
   1.61440      3.455500
   1.58496      3.429746
   1.55553      3.408137
   1.52609      3.391222
   1.49665      3.379811
   1.46722      3.377046
   1.43778      3.386612
   1.40834      3.407725
   1.37891      3.435274
   1.34947      3.464102
   1.32003      3.490696
   1.32003      3.490694
   1.26396      3.531854
   1.20789      3.578205
   1.15182      3.656265
   1.09575      3.761479
   1.03968      3.863458
   0.98361      3.940692
   0.92753      3.984670
   0.87146      3.988544
   0.81539      3.952274
   0.75932      3.894399
   0.70325      3.899356
   0.64718      3.977901
   0.59110      3.927419
   0.53503      3.761615
   0.47896      3.726331
   0.42289      3.922436
   0.36682      4.117230
   0.31075      4.259327
   0.25468      4.312439
   0.25468      4.312439
   0.24127      4.312943
   0.22787      4.314437
   0.21446      4.316874
   0.20106      4.320172
   0.18766      4.324208
   0.17425      4.328894
   0.16085      4.334070
   0.14744      4.339580
   0.13404      4.345267
   0.12064      4.350980
   0.10723      4.356557
   0.09383      4.361851
   0.08042      4.366739
   0.06702      4.371093
   0.05362      4.374808
   0.04021      4.377801
   0.02681      4.379904
   0.01340      4.381235
   0.00000      4.381747
 
# Band-Index   33
   0.00000      4.459590
   0.01340      4.459575
   0.02681      4.459610
   0.04021      4.459647
   0.05362      4.459638
   0.06702      4.459694
   0.08042      4.459759
   0.09383      4.459831
   0.10723      4.459929
   0.12064      4.460009
   0.13404      4.460083
   0.14744      4.460163
   0.16085      4.460239
   0.17425      4.460304
   0.18766      4.460358
   0.20106      4.460431
   0.21446      4.460475
   0.22787      4.460503
   0.24127      4.460540
   0.25468      4.460547
   0.25468      4.460547
   0.31075      4.463191
   0.36682      4.460670
   0.42289      4.446247
   0.47896      4.415678
   0.53503      4.366596
   0.59110      4.302041
   0.64718      4.251744
   0.70325      4.235916
   0.75932      4.248721
   0.81539      4.311756
   0.87146      4.417517
   0.92753      4.433402
   0.98361      4.252602
   1.03968      4.081730
   1.09575      3.943803
   1.15182      3.843605
   1.20789      3.770050
   1.26396      3.721048
   1.32003      3.706879
   1.32003      3.706878
   1.34947      3.714616
   1.37891      3.730961
   1.40834      3.755071
   1.43778      3.787811
   1.46722      3.831388
   1.49665      3.887678
   1.52609      3.956107
   1.55553      4.032471
   1.58496      4.109643
   1.61440      4.179349
   1.64384      4.234911
   1.67327      4.261888
   1.70271      4.187984
   1.73215      4.150137
   1.76158      4.149288
   1.79102      4.169649
   1.82046      4.193858
   1.84989      4.210218
   1.87933      4.215462
   1.87933      4.215461
   1.92890      4.219988
   1.97847      4.226713
   2.02804      4.226008
   2.07761      4.220995
   2.12718      4.217574
   2.17675      4.217234
   2.22632      4.216793
   2.27589      4.208693
   2.32546      4.182681
   2.37503      4.132837
   2.42460      4.104496
   2.47417      4.255403
   2.52374      4.432569
   2.57331      4.531564
   2.62288      4.549484
   2.67245      4.529533
   2.72202      4.500127
   2.77159      4.469927
   2.82116      4.459591
   2.82116      4.459590
   2.87863      4.469883
   2.93610      4.482910
   2.99357      4.491502
   3.05105      4.490673
   3.10852      4.456548
   3.16599      4.332957
   3.22346      4.170590
   3.28094      4.105877
   3.33841      4.198090
   3.39588      4.300909
   3.45335      4.359820
   3.51082      4.353614
   3.56830      4.235836
   3.62577      4.087681
   3.68324      3.952651
   3.74071      3.847158
   3.79819      3.777356
   3.85566      3.736893
   3.91313      3.711051
   3.91313      3.711051
   3.94117      3.700657
   3.96920      3.692546
   3.99724      3.691065
   4.02527      3.709083
   4.05331      3.757398
   4.08135      3.822718
   4.10938      3.891419
   4.13742      3.952710
   4.16545      3.996476
   4.19349      4.018299
   4.22152      4.024826
   4.24956      4.027070
   4.27760      4.028637
   4.30563      4.026085
   4.33367      4.017377
   4.36170      4.005060
   4.38974      3.993250
   4.41777      3.985016
   4.44581      3.982097
   4.44581      3.982097
   4.49598      3.986654
   4.54615      4.000056
   4.59632      4.021421
   4.64649      4.048980
   4.69666      4.079790
   4.74683      4.109654
   4.79700      4.132818
   4.84717      4.142192
   4.89734      4.131574
   4.94751      4.106723
   4.99768      4.123975
   5.04785      4.254125
   5.09803      4.414126
   5.14820      4.514390
   5.19837      4.540061
   5.24854      4.525687
   5.29871      4.499788
   5.34888      4.469912
   5.39905      4.459590
 
# Band-Index   34
   5.39905      4.459597
   5.34888      4.474724
   5.29871      4.500063
   5.24854      4.547119
   5.19837      4.606160
   5.14820      4.670547
   5.09803      4.732284
   5.04785      4.783244
   4.99768      4.816676
   4.94751      4.829101
   4.89734      4.821293
   4.84717      4.797084
   4.79700      4.710032
   4.74683      4.593257
   4.69666      4.479903
   4.64649      4.377088
   4.59632      4.290677
   4.54615      4.225389
   4.49598      4.184740
   4.44581      4.170931
   4.44581      4.170931
   4.41777      4.176022
   4.38974      4.190549
   4.36170      4.212263
   4.33367      4.238527
   4.30563      4.269190
   4.27760      4.308730
   4.24956      4.361715
   4.22152      4.427223
   4.19349      4.498448
   4.16545      4.568314
   4.13742      4.637317
   4.10938      4.708059
   4.08135      4.776840
   4.05331      4.836317
   4.02527      4.880598
   3.99724      4.908017
   3.96920      4.920467
   3.94117      4.921386
   3.91313      4.914049
   3.91313      4.914059
   3.85566      4.882876
   3.79819      4.835359
   3.74071      4.772892
   3.68324      4.700731
   3.62577      4.628637
   3.56830      4.568325
   3.51082      4.552105
   3.45335      4.627860
   3.39588      4.577540
   3.33841      4.520529
   3.28094      4.526891
   3.22346      4.556026
   3.16599      4.591425
   3.10852      4.651316
   3.05105      4.675108
   2.99357      4.615978
   2.93610      4.538687
   2.87863      4.482242
   2.82116      4.459597
   2.82116      4.459598
   2.77159      4.474855
   2.72202      4.500902
   2.67245      4.547259
   2.62288      4.606304
   2.57331      4.670521
   2.52374      4.731678
   2.47417      4.781427
   2.42460      4.812739
   2.37503      4.822010
   2.32546      4.810252
   2.27589      4.781722
   2.22632      4.742310
   2.17675      4.681998
   2.12718      4.568218
   2.07761      4.469198
   2.02804      4.391852
   1.97847      4.342838
   1.92890      4.322933
   1.87933      4.319156
   1.87933      4.319156
   1.84989      4.317461
   1.82046      4.315238
   1.79102      4.315199
   1.76158      4.315203
   1.73215      4.311215
   1.70271      4.299376
   1.67327      4.280843
   1.64384      4.379039
   1.61440      4.503858
   1.58496      4.624165
   1.55553      4.719858
   1.52609      4.782229
   1.49665      4.820522
   1.46722      4.846671
   1.43778      4.866600
   1.40834      4.882641
   1.37891      4.895659
   1.34947      4.906337
   1.32003      4.914979
   1.32003      4.914976
   1.26396      4.925832
   1.20789      4.925271
   1.15182      4.903625
   1.09575      4.852210
   1.03968      4.770932
   0.98361      4.666900
   0.92753      4.551954
   0.87146      4.625189
   0.81539      4.751664
   0.75932      4.705567
   0.70325      4.586359
   0.64718      4.502013
   0.59110      4.545038
   0.53503      4.636815
   0.47896      4.652137
   0.42289      4.595493
   0.36682      4.525352
   0.31075      4.476101
   0.25468      4.460554
   0.25468      4.460554
   0.24127      4.460547
   0.22787      4.460510
   0.21446      4.460482
   0.20106      4.460438
   0.18766      4.460365
   0.17425      4.460311
   0.16085      4.460246
   0.14744      4.460170
   0.13404      4.460091
   0.12064      4.460016
   0.10723      4.459937
   0.09383      4.459838
   0.08042      4.459766
   0.06702      4.459701
   0.05362      4.459645
   0.04021      4.459655
   0.02681      4.459617
   0.01340      4.459582
   0.00000      4.459597
 
# Band-Index   35
   0.00000      6.088460
   0.01340      6.094855
   0.02681      6.096205
   0.04021      6.107370
   0.05362      6.081700
   0.06702      6.082438
   0.08042      6.072800
   0.09383      6.072971
   0.10723      6.068805
   0.12064      6.061652
   0.13404      6.056036
   0.14744      6.056773
   0.16085      6.049608
   0.17425      6.051470
   0.18766      6.047232
   0.20106      6.041847
   0.21446      6.042124
   0.22787      6.040152
   0.24127      6.041748
   0.25468      6.040335
   0.25468      6.042874
   0.31075      6.015406
   0.36682      5.872006
   0.42289      5.686488
   0.47896      5.497324
   0.53503      5.384841
   0.59110      5.358720
   0.64718      5.321427
   0.70325      5.211860
   0.75932      5.057371
   0.81539      4.936645
   0.87146      4.950809
   0.92753      5.010789
   0.98361      5.111750
   1.03968      5.256792
   1.09575      5.427746
   1.15182      5.574191
   1.20789      5.677436
   1.26396      5.783180
   1.32003      5.849187
   1.32003      5.854603
   1.34947      5.827083
   1.37891      5.768439
   1.40834      5.678126
   1.43778      5.570956
   1.46722      5.450136
   1.49665      5.328459
   1.52609      5.215888
   1.55553      5.131202
   1.58496      5.089588
   1.61440      5.098296
   1.64384      5.096844
   1.67327      4.973867
   1.70271      4.859957
   1.73215      4.761079
   1.76158      4.678609
   1.79102      4.614068
   1.82046      4.567845
   1.84989      4.539890
   1.87933      4.530443
   1.87933      4.530443
   1.92890      4.535856
   1.97847      4.551889
   2.02804      4.577790
   2.07761      4.612229
   2.12718      4.653175
   2.17675      4.697829
   2.22632      4.802291
   2.27589      4.917902
   2.32546      5.013663
   2.37503      5.073327
   2.42460      5.093998
   2.47417      5.099640
   2.52374      5.138070
   2.57331      5.260246
   2.62288      5.460774
   2.67245      5.693020
   2.72202      5.921846
   2.77159      6.042792
   2.82116      6.089868
   2.82116      6.085616
   2.87863      6.041959
   2.93610      5.839908
   2.99357      5.592609
   3.05105      5.369771
   3.10852      5.264022
   3.16599      5.275021
   3.22346      5.288665
   3.28094      5.187994
   3.33841      5.019635
   3.39588      4.851713
   3.45335      4.770451
   3.51082      4.901556
   3.56830      5.068578
   3.62577      5.237449
   3.68324      5.397138
   3.74071      5.545313
   3.79819      5.649022
   3.85566      5.751475
   3.91313      5.808532
   3.91313      5.808359
   3.94117      5.778954
   3.96920      5.701659
   3.99724      5.617273
   4.02527      5.477583
   4.05331      5.363551
   4.08135      5.246218
   4.10938      5.130994
   4.13742      5.018216
   4.16545      4.917801
   4.19349      4.834806
   4.22152      4.759756
   4.24956      4.687434
   4.27760      4.623902
   4.30563      4.577383
   4.33367      4.552846
   4.36170      4.548109
   4.38974      4.554561
   4.41777      4.562637
   4.44581      4.566078
   4.44581      4.566077
   4.49598      4.571164
   4.54615      4.586205
   4.59632      4.610450
   4.64649      4.642524
   4.69666      4.680481
   4.74683      4.721541
   4.79700      4.762010
   4.84717      4.821794
   4.89734      4.918402
   4.94751      4.989795
   4.99768      5.034575
   5.04785      5.070298
   5.09803      5.132714
   5.14820      5.263564
   5.19837      5.463647
   5.24854      5.688361
   5.29871      5.904048
   5.34888      6.065059
   5.39905      6.089391
 
# Band-Index   36
   5.39905      6.151375
   5.34888      6.145260
   5.29871      6.133599
   5.24854      6.095869
   5.19837      5.938771
   5.14820      5.970784
   5.09803      5.812689
   5.04785      5.813731
   4.99768      5.815166
   4.94751      5.989394
   4.89734      5.993400
   4.84717      6.071970
   4.79700      6.066911
   4.74683      6.090794
   4.69666      6.033094
   4.64649      6.003370
   4.59632      5.971102
   4.54615      5.937479
   4.49598      5.911049
   4.44581      5.906404
   4.44581      5.935407
   4.41777      5.857427
   4.38974      5.831147
   4.36170      5.644115
   4.33367      5.513690
   4.30563      5.384649
   4.27760      5.258742
   4.24956      5.154297
   4.22152      5.085132
   4.19349      5.069624
   4.16545      5.111353
   4.13742      5.192182
   4.10938      5.295536
   4.08135      5.412051
   4.05331      5.546364
   4.02527      5.648228
   3.99724      5.760148
   3.96920      5.844698
   3.94117      5.956929
   3.91313      5.996556
   3.91313      6.027162
   3.85566      6.126500
   3.79819      6.034263
   3.74071      5.935837
   3.68324      5.845722
   3.62577      5.763713
   3.56830      5.763574
   3.51082      5.605260
   3.45335      5.549877
   3.39588      5.491677
   3.33841      5.452981
   3.28094      5.427285
   3.22346      5.470837
   3.16599      5.612988
   3.10852      5.756975
   3.05105      5.875073
   2.99357      5.973008
   2.93610      6.082618
   2.87863      6.146465
   2.82116      6.119747
   2.82116      6.114330
   2.77159      6.119578
   2.72202      6.115175
   2.67245      6.017241
   2.62288      5.942086
   2.57331      5.866164
   2.52374      5.816897
   2.47417      5.812420
   2.42460      5.825069
   2.37503      5.879915
   2.32546      5.940344
   2.27589      6.011999
   2.22632      5.930607
   2.17675      5.789708
   2.12718      5.659167
   2.07761      5.537573
   2.02804      5.428015
   1.97847      5.341972
   1.92890      5.286157
   1.87933      5.266762
   1.87933      5.266837
   1.84989      5.269634
   1.82046      5.275672
   1.79102      5.312079
   1.76158      5.297480
   1.73215      5.325915
   1.70271      5.295757
   1.67327      5.222727
   1.64384      5.148273
   1.61440      5.308016
   1.58496      5.391918
   1.55553      5.508487
   1.52609      5.669332
   1.49665      5.771796
   1.46722      5.875135
   1.43778      5.945415
   1.40834      6.003202
   1.37891      6.037747
   1.34947      5.974717
   1.32003      5.913615
   1.32003      5.915386
   1.26396      5.880150
   1.20789      5.761872
   1.15182      5.719527
   1.09575      5.545049
   1.03968      5.429162
   0.98361      5.352842
   0.92753      5.299327
   0.87146      5.275684
   0.81539      5.301817
   0.75932      5.382781
   0.70325      5.502170
   0.64718      5.646982
   0.59110      5.792284
   0.53503      5.819272
   0.47896      5.883763
   0.42289      6.036712
   0.36682      6.063425
   0.31075      6.061497
   0.25468      6.081917
   0.25468      6.149835
   0.24127      6.049248
   0.22787      6.095704
   0.21446      6.093329
   0.20106      6.053950
   0.18766      6.094090
   0.17425      6.122517
   0.16085      6.056162
   0.14744      6.085012
   0.13404      6.089001
   0.12064      6.073828
   0.10723      6.110491
   0.09383      6.111659
   0.08042      6.192175
   0.06702      6.144066
   0.05362      6.112276
   0.04021      6.127035
   0.02681      6.121141
   0.01340      6.174501
   0.00000      6.142484
