#K-Path(1/A) Energy-Level(eV)
# NKPTS & NBANDS: 140  40
# Band-Index:    1
   0.00000    -16.470234
   0.01341    -16.470255
   0.02682    -16.470263
   0.04023    -16.470265
   0.05365    -16.470268
   0.06706    -16.470274
   0.08047    -16.470278
   0.09388    -16.470283
   0.10729    -16.470290
   0.12070    -16.470296
   0.13412    -16.470303
   0.14753    -16.470317
   0.16094    -16.470320
   0.17435    -16.470325
   0.18776    -16.470336
   0.20117    -16.470342
   0.21459    -16.470351
   0.22800    -16.470354
   0.24141    -16.470350
   0.25482    -16.470350
   0.25482    -16.470350
   0.31064    -16.471396
   0.36647    -16.474739
   0.42229    -16.480878
   0.47811    -16.490503
   0.53393    -16.504031
   0.58976    -16.521340
   0.64558    -16.541615
   0.70140    -16.563627
   0.75723    -16.586008
   0.81305    -16.607607
   0.86887    -16.627566
   0.92469    -16.645276
   0.98052    -16.660366
   1.03634    -16.672651
   1.09216    -16.682113
   1.14798    -16.688910
   1.20381    -16.693329
   1.25963    -16.695765
   1.31545    -16.696675
   1.31545    -16.696675
   1.34473    -16.696698
   1.37402    -16.696514
   1.40330    -16.696180
   1.43258    -16.695762
   1.46186    -16.695331
   1.49114    -16.694935
   1.52043    -16.694599
   1.54971    -16.694359
   1.57899    -16.694222
   1.60827    -16.694198
   1.63756    -16.694273
   1.66684    -16.694431
   1.69612    -16.694639
   1.72540    -16.694882
   1.75468    -16.695121
   1.78397    -16.695347
   1.81325    -16.695525
   1.84253    -16.695623
   1.87181    -16.695657
   1.87181    -16.695657
   1.92115    -16.694106
   1.97049    -16.689463
   2.01983    -16.681795
   2.06916    -16.671253
   2.11850    -16.658026
   2.16784    -16.642346
   2.21718    -16.624589
   2.26652    -16.605215
   2.31586    -16.584791
   2.36519    -16.564068
   2.41453    -16.543888
   2.46387    -16.525202
   2.51321    -16.508870
   2.56255    -16.495523
   2.61189    -16.485390
   2.66122    -16.478224
   2.71056    -16.473617
   2.75990    -16.471053
   2.80924    -16.470234
   2.80924    -16.470234
   2.86643    -16.471358
   2.92362    -16.474881
   2.98082    -16.481383
   3.03801    -16.491577
   3.09521    -16.505916
   3.15240    -16.524142
   3.20959    -16.545304
   3.26679    -16.568013
   3.32398    -16.590865
   3.38117    -16.612707
   3.43837    -16.632620
   3.49556    -16.650030
   3.55275    -16.664594
   3.60995    -16.676205
   3.66714    -16.684912
   3.72433    -16.690908
   3.78153    -16.694564
   3.83872    -16.696330
   3.89591    -16.696706
   3.89591    -16.696706
   3.92382    -16.696550
   3.95174    -16.696265
   3.97965    -16.695889
   4.00756    -16.695476
   4.03547    -16.695080
   4.06338    -16.694738
   4.09129    -16.694463
   4.11920    -16.694284
   4.14712    -16.694206
   4.17503    -16.694219
   4.20294    -16.694319
   4.23085    -16.694491
   4.25876    -16.694712
   4.28667    -16.694956
   4.31458    -16.695186
   4.34250    -16.695392
   4.37041    -16.695548
   4.39832    -16.695669
   4.42623    -16.695703
   4.42623    -16.695703
   4.47617    -16.694146
   4.52611    -16.689481
   4.57606    -16.681811
   4.62600    -16.671251
   4.67594    -16.658020
   4.72588    -16.642351
   4.77582    -16.624611
   4.82577    -16.605229
   4.87571    -16.584819
   4.92565    -16.564098
   4.97559    -16.543906
   5.02554    -16.525220
   5.07548    -16.508884
   5.12542    -16.495539
   5.17536    -16.485396
   5.22530    -16.478229
   5.27525    -16.473616
   5.32519    -16.471056
   5.37513    -16.470234
 
# Band-Index:    2
   5.37513    -16.240467
   5.32519    -16.242673
   5.27525    -16.248900
   5.22530    -16.258147
   5.17536    -16.269038
   5.12542    -16.280029
   5.07548    -16.289969
   5.02554    -16.298164
   4.97559    -16.304593
   4.92565    -16.309652
   4.87571    -16.313880
   4.82577    -16.317838
   4.77582    -16.321922
   4.72588    -16.326305
   4.67594    -16.330945
   4.62600    -16.335590
   4.57606    -16.339849
   4.52611    -16.343286
   4.47617    -16.345523
   4.42623    -16.346301
   4.42623    -16.346301
   4.39832    -16.346074
   4.37041    -16.345385
   4.34250    -16.344274
   4.31458    -16.342768
   4.28667    -16.340900
   4.25876    -16.338738
   4.23085    -16.336340
   4.20294    -16.333786
   4.17503    -16.331147
   4.14712    -16.328495
   4.11920    -16.325897
   4.09129    -16.323436
   4.06338    -16.321174
   4.03547    -16.319157
   4.00756    -16.317454
   3.97965    -16.316087
   3.95174    -16.315081
   3.92382    -16.314435
   3.89591    -16.314165
   3.89591    -16.314165
   3.83872    -16.314601
   3.78153    -16.316034
   3.72433    -16.317929
   3.66714    -16.319686
   3.60995    -16.320859
   3.55275    -16.321190
   3.49556    -16.320656
   3.43837    -16.319331
   3.38117    -16.317291
   3.32398    -16.314524
   3.26679    -16.310762
   3.20959    -16.305515
   3.15240    -16.298183
   3.09521    -16.288356
   3.03801    -16.276326
   2.98082    -16.263388
   2.92362    -16.251680
   2.86643    -16.243456
   2.80924    -16.240467
   2.80924    -16.240467
   2.75990    -16.242682
   2.71056    -16.248916
   2.66122    -16.258155
   2.61189    -16.269038
   2.56255    -16.280028
   2.51321    -16.289982
   2.46387    -16.298183
   2.41453    -16.304605
   2.36519    -16.309669
   2.31586    -16.313913
   2.26652    -16.317882
   2.21718    -16.321975
   2.16784    -16.326382
   2.11850    -16.331057
   2.06916    -16.335702
   2.01983    -16.339949
   1.97049    -16.343380
   1.92115    -16.345606
   1.87181    -16.346376
   1.87181    -16.346376
   1.84253    -16.346127
   1.81325    -16.345391
   1.78397    -16.344166
   1.75468    -16.342515
   1.72540    -16.340488
   1.69612    -16.338141
   1.66684    -16.335565
   1.63756    -16.332836
   1.60827    -16.330034
   1.57899    -16.327259
   1.54971    -16.324584
   1.52043    -16.322098
   1.49114    -16.319877
   1.46186    -16.317955
   1.43258    -16.316410
   1.40330    -16.315264
   1.37402    -16.314534
   1.34473    -16.314190
   1.31545    -16.314222
   1.31545    -16.314222
   1.25963    -16.315147
   1.20381    -16.316803
   1.14798    -16.318671
   1.09216    -16.320233
   1.03634    -16.321127
   0.98052    -16.321190
   0.92469    -16.320412
   0.86887    -16.318919
   0.81305    -16.316769
   0.75723    -16.313891
   0.70140    -16.309944
   0.64558    -16.304466
   0.58976    -16.296916
   0.53393    -16.286991
   0.47811    -16.275082
   0.42229    -16.262476
   0.36647    -16.251183
   0.31064    -16.243319
   0.25482    -16.240483
   0.25482    -16.240483
   0.24141    -16.240483
   0.22800    -16.240489
   0.21459    -16.240489
   0.20117    -16.240481
   0.18776    -16.240485
   0.17435    -16.240485
   0.16094    -16.240485
   0.14753    -16.240499
   0.13412    -16.240497
   0.12070    -16.240496
   0.10729    -16.240496
   0.09388    -16.240496
   0.08047    -16.240496
   0.06706    -16.240496
   0.05365    -16.240493
   0.04023    -16.240472
   0.02682    -16.240471
   0.01341    -16.240467
   0.00000    -16.240467
 
# Band-Index:    3
   0.00000    -16.240467
   0.01341    -16.240467
   0.02682    -16.240471
   0.04023    -16.240472
   0.05365    -16.240493
   0.06706    -16.240496
   0.08047    -16.240496
   0.09388    -16.240496
   0.10729    -16.240496
   0.12070    -16.240496
   0.13412    -16.240497
   0.14753    -16.240499
   0.16094    -16.240485
   0.17435    -16.240485
   0.18776    -16.240485
   0.20117    -16.240481
   0.21459    -16.240489
   0.22800    -16.240489
   0.24141    -16.240483
   0.25482    -16.240483
   0.25482    -16.240483
   0.31064    -16.239585
   0.36647    -16.236949
   0.42229    -16.232682
   0.47811    -16.227050
   0.53393    -16.220356
   0.58976    -16.213024
   0.64558    -16.205523
   0.70140    -16.198343
   0.75723    -16.191858
   0.81305    -16.186385
   0.86887    -16.182098
   0.92469    -16.179016
   0.98052    -16.177047
   1.03634    -16.175999
   1.09216    -16.175663
   1.14798    -16.175825
   1.20381    -16.176278
   1.25963    -16.176792
   1.31545    -16.177089
   1.31545    -16.177089
   1.34473    -16.177094
   1.37402    -16.176970
   1.40330    -16.176686
   1.43258    -16.176207
   1.46186    -16.175563
   1.49114    -16.174750
   1.52043    -16.173742
   1.54971    -16.172580
   1.57899    -16.171298
   1.60827    -16.169904
   1.63756    -16.168415
   1.66684    -16.166954
   1.69612    -16.165502
   1.72540    -16.164148
   1.75468    -16.162936
   1.78397    -16.161928
   1.81325    -16.161182
   1.84253    -16.160682
   1.87181    -16.160536
   1.87181    -16.160536
   1.92115    -16.160859
   1.97049    -16.161890
   2.01983    -16.163598
   2.06916    -16.166049
   2.11850    -16.169289
   2.16784    -16.173326
   2.21718    -16.178216
   2.26652    -16.183871
   2.31586    -16.190196
   2.36519    -16.197023
   2.41453    -16.204112
   2.46387    -16.211213
   2.51321    -16.218035
   2.56255    -16.224324
   2.61189    -16.229856
   2.66122    -16.234396
   2.71056    -16.237749
   2.75990    -16.239788
   2.80924    -16.240467
   2.80924    -16.240467
   2.86643    -16.239544
   2.92362    -16.236764
   2.98082    -16.232311
   3.03801    -16.226431
   3.09521    -16.219502
   3.15240    -16.211961
   3.20959    -16.204258
   3.26679    -16.196991
   3.32398    -16.190533
   3.38117    -16.185210
   3.43837    -16.181148
   3.49556    -16.178333
   3.55275    -16.176611
   3.60995    -16.175803
   3.66714    -16.175679
   3.72433    -16.175995
   3.78153    -16.176501
   3.83872    -16.176954
   3.89591    -16.177108
   3.89591    -16.177108
   3.92382    -16.177008
   3.95174    -16.176777
   3.97965    -16.176395
   4.00756    -16.175827
   4.03547    -16.175079
   4.06338    -16.174189
   4.09129    -16.173129
   4.11920    -16.171954
   4.14712    -16.170657
   4.17503    -16.169282
   4.20294    -16.167840
   4.23085    -16.166426
   4.25876    -16.165062
   4.28667    -16.163828
   4.31458    -16.162744
   4.34250    -16.161810
   4.37041    -16.161120
   4.39832    -16.160716
   4.42623    -16.160564
   4.42623    -16.160564
   4.47617    -16.160895
   4.52611    -16.161889
   4.57606    -16.163576
   4.62600    -16.166023
   4.67594    -16.169264
   4.72588    -16.173325
   4.77582    -16.178212
   4.82577    -16.183879
   4.87571    -16.190192
   4.92565    -16.196995
   4.97559    -16.204095
   5.02554    -16.211207
   5.07548    -16.218037
   5.12542    -16.224338
   5.17536    -16.229864
   5.22530    -16.234373
   5.27525    -16.237743
   5.32519    -16.239775
   5.37513    -16.240467
 
# Band-Index:    4
   5.37513    -16.042996
   5.32519    -16.043691
   5.27525    -16.045635
   5.22530    -16.048486
   5.17536    -16.051995
   5.12542    -16.055851
   5.07548    -16.059884
   5.02554    -16.064023
   4.97559    -16.068141
   4.92565    -16.072219
   4.87571    -16.076250
   4.82577    -16.080307
   4.77582    -16.084577
   4.72588    -16.089394
   4.67594    -16.095160
   4.62600    -16.101661
   4.57606    -16.107783
   4.52611    -16.112539
   4.47617    -16.115464
   4.42623    -16.116439
   4.42623    -16.116439
   4.39832    -16.116152
   4.37041    -16.115277
   4.34250    -16.113858
   4.31458    -16.111887
   4.28667    -16.109350
   4.25876    -16.106315
   4.23085    -16.102806
   4.20294    -16.098869
   4.17503    -16.094541
   4.14712    -16.089929
   4.11920    -16.085123
   4.09129    -16.080252
   4.06338    -16.075480
   4.03547    -16.071013
   4.00756    -16.067268
   3.97965    -16.064664
   3.95174    -16.062854
   3.92382    -16.061597
   3.89591    -16.061002
   3.89591    -16.061002
   3.83872    -16.062066
   3.78153    -16.065275
   3.72433    -16.068944
   3.66714    -16.072269
   3.60995    -16.074858
   3.55275    -16.076535
   3.49556    -16.077225
   3.43837    -16.076884
   3.38117    -16.075590
   3.32398    -16.073416
   3.26679    -16.070484
   3.20959    -16.066947
   3.15240    -16.062972
   3.09521    -16.058684
   3.03801    -16.054274
   2.98082    -16.050085
   2.92362    -16.046478
   2.86643    -16.043943
   2.80924    -16.042996
   2.80924    -16.042996
   2.75990    -16.043697
   2.71056    -16.045637
   2.66122    -16.048488
   2.61189    -16.051989
   2.56255    -16.055836
   2.51321    -16.059900
   2.46387    -16.064008
   2.41453    -16.068124
   2.36519    -16.072196
   2.31586    -16.076229
   2.26652    -16.080304
   2.21718    -16.084557
   2.16784    -16.089375
   2.11850    -16.095140
   2.06916    -16.101629
   2.01983    -16.107704
   1.97049    -16.112422
   1.92115    -16.115320
   1.87181    -16.116291
   1.87181    -16.116291
   1.84253    -16.115981
   1.81325    -16.115059
   1.78397    -16.113492
   1.75468    -16.111323
   1.72540    -16.108567
   1.69612    -16.105257
   1.66684    -16.101424
   1.63756    -16.097124
   1.60827    -16.092459
   1.57899    -16.087512
   1.54971    -16.082416
   1.52043    -16.077342
   1.49114    -16.072514
   1.46186    -16.068311
   1.43258    -16.065268
   1.40330    -16.063212
   1.37402    -16.061780
   1.34473    -16.061039
   1.31545    -16.061110
   1.31545    -16.061110
   1.25963    -16.063278
   1.20381    -16.066732
   1.14798    -16.070258
   1.09216    -16.073308
   1.03634    -16.075572
   0.98052    -16.076904
   0.92469    -16.077230
   0.86887    -16.076634
   0.81305    -16.075148
   0.75723    -16.072874
   0.70140    -16.069877
   0.64558    -16.066326
   0.58976    -16.062370
   0.53393    -16.058152
   0.47811    -16.053854
   0.42229    -16.049782
   0.36647    -16.046316
   0.31064    -16.043934
   0.25482    -16.043072
   0.25482    -16.043072
   0.24141    -16.043072
   0.22800    -16.043085
   0.21459    -16.043085
   0.20117    -16.043056
   0.18776    -16.043043
   0.17435    -16.043047
   0.16094    -16.043046
   0.14753    -16.043063
   0.13412    -16.043048
   0.12070    -16.043046
   0.10729    -16.043045
   0.09388    -16.043043
   0.08047    -16.043042
   0.06706    -16.043042
   0.05365    -16.043021
   0.04023    -16.043007
   0.02682    -16.043007
   0.01341    -16.042998
   0.00000    -16.042996
 
# Band-Index:    5
   0.00000    -16.042996
   0.01341    -16.042998
   0.02682    -16.043007
   0.04023    -16.043007
   0.05365    -16.043021
   0.06706    -16.043042
   0.08047    -16.043042
   0.09388    -16.043043
   0.10729    -16.043045
   0.12070    -16.043046
   0.13412    -16.043048
   0.14753    -16.043063
   0.16094    -16.043046
   0.17435    -16.043047
   0.18776    -16.043043
   0.20117    -16.043056
   0.21459    -16.043085
   0.22800    -16.043085
   0.24141    -16.043072
   0.25482    -16.043072
   0.25482    -16.043072
   0.31064    -16.043008
   0.36647    -16.042840
   0.42229    -16.042517
   0.47811    -16.042055
   0.53393    -16.041418
   0.58976    -16.040558
   0.64558    -16.039506
   0.70140    -16.038292
   0.75723    -16.036961
   0.81305    -16.035719
   0.86887    -16.035018
   0.92469    -16.038201
   0.98052    -16.047916
   1.03634    -16.055341
   1.09216    -16.059637
   1.14798    -16.061122
   1.20381    -16.060290
   1.25963    -16.057825
   1.31545    -16.054367
   1.31545    -16.054367
   1.34473    -16.054089
   1.37402    -16.056395
   1.40330    -16.059285
   1.43258    -16.062488
   1.46186    -16.065476
   1.49114    -16.067813
   1.52043    -16.069858
   1.54971    -16.071736
   1.57899    -16.073488
   1.60827    -16.075084
   1.63756    -16.076526
   1.66684    -16.077809
   1.69612    -16.078928
   1.72540    -16.079889
   1.75468    -16.080676
   1.78397    -16.081292
   1.81325    -16.081737
   1.84253    -16.081990
   1.87181    -16.082077
   1.87181    -16.082077
   1.92115    -16.081671
   1.97049    -16.080405
   2.01983    -16.077916
   2.06916    -16.073509
   2.11850    -16.065870
   2.16784    -16.053645
   2.21718    -16.036523
   2.26652    -16.030367
   2.31586    -16.033256
   2.36519    -16.035741
   2.41453    -16.037801
   2.46387    -16.039426
   2.51321    -16.040653
   2.56255    -16.041541
   2.61189    -16.042182
   2.66122    -16.042595
   2.71056    -16.042860
   2.75990    -16.042961
   2.80924    -16.042996
   2.80924    -16.042996
   2.86643    -16.042958
   2.92362    -16.042798
   2.98082    -16.042481
   3.03801    -16.041990
   3.09521    -16.041325
   3.15240    -16.040423
   3.20959    -16.039299
   3.26679    -16.038007
   3.32398    -16.036644
   3.38117    -16.035442
   3.43837    -16.035108
   3.49556    -16.041065
   3.55275    -16.050662
   3.60995    -16.057182
   3.66714    -16.060513
   3.72433    -16.061033
   3.78153    -16.059403
   3.83872    -16.056360
   3.89591    -16.053932
   3.89591    -16.053932
   3.92382    -16.055994
   3.95174    -16.058691
   3.97965    -16.061716
   4.00756    -16.064684
   4.03547    -16.067066
   4.06338    -16.069090
   4.09129    -16.070936
   4.11920    -16.072648
   4.14712    -16.074237
   4.17503    -16.075691
   4.20294    -16.077007
   4.23085    -16.078184
   4.25876    -16.079219
   4.28667    -16.080099
   4.31458    -16.080810
   4.34250    -16.081373
   4.37041    -16.081795
   4.39832    -16.082047
   4.42623    -16.082115
   4.42623    -16.082115
   4.47617    -16.081710
   4.52611    -16.080403
   4.57606    -16.077904
   4.62600    -16.073496
   4.67594    -16.065876
   4.72588    -16.053670
   4.77582    -16.036565
   4.82577    -16.030371
   4.87571    -16.033255
   4.92565    -16.035762
   4.97559    -16.037806
   5.02554    -16.039417
   5.07548    -16.040656
   5.12542    -16.041540
   5.17536    -16.042175
   5.22530    -16.042600
   5.27525    -16.042849
   5.32519    -16.042961
   5.37513    -16.042996
 
# Band-Index:    6
   5.37513    -15.756716
   5.32519    -15.763836
   5.27525    -15.777088
   5.22530    -15.795032
   5.17536    -15.817432
   5.12542    -15.843501
   5.07548    -15.872154
   5.02554    -15.902313
   4.97559    -15.932730
   4.92565    -15.962329
   4.87571    -15.990092
   4.82577    -16.015111
   4.77582    -16.027173
   4.72588    -16.023776
   4.67594    -16.020364
   4.62600    -16.017159
   4.57606    -16.014406
   4.52611    -16.012270
   4.47617    -16.010949
   4.42623    -16.010490
   4.42623    -16.010490
   4.39832    -16.010656
   4.37041    -16.011141
   4.34250    -16.011980
   4.31458    -16.013140
   4.28667    -16.014591
   4.25876    -16.016316
   4.23085    -16.018309
   4.20294    -16.020555
   4.17503    -16.023014
   4.14712    -16.025637
   4.11920    -16.028419
   4.09129    -16.031317
   4.06338    -16.034302
   4.03547    -16.037316
   4.00756    -16.040331
   3.97965    -16.043324
   3.95174    -16.046217
   3.92382    -16.048910
   3.89591    -16.051057
   3.89591    -16.051057
   3.83872    -16.048251
   3.78153    -16.043819
   3.72433    -16.039842
   3.66714    -16.036623
   3.60995    -16.034318
   3.55275    -16.032940
   3.49556    -16.031864
   3.43837    -16.023821
   3.38117    -16.005715
   3.32398    -15.982782
   3.26679    -15.955944
   3.20959    -15.926056
   3.15240    -15.894358
   3.09521    -15.862384
   3.03801    -15.831822
   2.98082    -15.804580
   2.92362    -15.782226
   2.86643    -15.765686
   2.80924    -15.756716
   2.80924    -15.756716
   2.75990    -15.763845
   2.71056    -15.777099
   2.66122    -15.795035
   2.61189    -15.817447
   2.56255    -15.843486
   2.51321    -15.872196
   2.46387    -15.902312
   2.41453    -15.932718
   2.36519    -15.962303
   2.31586    -15.990055
   2.26652    -16.015077
   2.21718    -16.027153
   2.16784    -16.023761
   2.11850    -16.020376
   2.06916    -16.017188
   2.01983    -16.014425
   1.97049    -16.012263
   1.92115    -16.010900
   1.87181    -16.010438
   1.87181    -16.010438
   1.84253    -16.010626
   1.81325    -16.011213
   1.78397    -16.012132
   1.75468    -16.013408
   1.72540    -16.015018
   1.69612    -16.016904
   1.66684    -16.019093
   1.63756    -16.021517
   1.60827    -16.024168
   1.57899    -16.026996
   1.54971    -16.029959
   1.52043    -16.033045
   1.49114    -16.036192
   1.46186    -16.039369
   1.43258    -16.042526
   1.40330    -16.045601
   1.37402    -16.048482
   1.34473    -16.050878
   1.31545    -16.050573
   1.31545    -16.050573
   1.25963    -16.046323
   1.20381    -16.042149
   1.14798    -16.038526
   1.09216    -16.035704
   1.03634    -16.033800
   0.98052    -16.032673
   0.92469    -16.031005
   0.86887    -16.019551
   0.81305    -16.000547
   0.75723    -15.977260
   0.70140    -15.950385
   0.64558    -15.920828
   0.58976    -15.889768
   0.53393    -15.858632
   0.47811    -15.829074
   0.42229    -15.802806
   0.36647    -15.781284
   0.31064    -15.765358
   0.25482    -15.756660
   0.25482    -15.756660
   0.24141    -15.756661
   0.22800    -15.756704
   0.21459    -15.756704
   0.20117    -15.756702
   0.18776    -15.756697
   0.17435    -15.756698
   0.16094    -15.756702
   0.14753    -15.756719
   0.13412    -15.756715
   0.12070    -15.756720
   0.10729    -15.756726
   0.09388    -15.756731
   0.08047    -15.756736
   0.06706    -15.756742
   0.05365    -15.756746
   0.04023    -15.756749
   0.02682    -15.756753
   0.01341    -15.756735
   0.00000    -15.756716
 
# Band-Index:    7
   0.00000    -15.750191
   0.01341    -15.750192
   0.02682    -15.750197
   0.04023    -15.750198
   0.05365    -15.750203
   0.06706    -15.750216
   0.08047    -15.750217
   0.09388    -15.750218
   0.10729    -15.750220
   0.12070    -15.750222
   0.13412    -15.750223
   0.14753    -15.750245
   0.16094    -15.750235
   0.17435    -15.750237
   0.18776    -15.750236
   0.20117    -15.750253
   0.21459    -15.750317
   0.22800    -15.750316
   0.24141    -15.750312
   0.25482    -15.750312
   0.25482    -15.750312
   0.31064    -15.749710
   0.36647    -15.748509
   0.42229    -15.747480
   0.47811    -15.747034
   0.53393    -15.747292
   0.58976    -15.748410
   0.64558    -15.750628
   0.70140    -15.754204
   0.75723    -15.759297
   0.81305    -15.766095
   0.86887    -15.774680
   0.92469    -15.785001
   0.98052    -15.796946
   1.03634    -15.810190
   1.09216    -15.824208
   1.14798    -15.838281
   1.20381    -15.851240
   1.25963    -15.861445
   1.31545    -15.866828
   1.31545    -15.866828
   1.34473    -15.867012
   1.37402    -15.865074
   1.40330    -15.860939
   1.43258    -15.854630
   1.46186    -15.846342
   1.49114    -15.836355
   1.52043    -15.825013
   1.54971    -15.812684
   1.57899    -15.799800
   1.60827    -15.786704
   1.63756    -15.773781
   1.66684    -15.761405
   1.69612    -15.749906
   1.72540    -15.739637
   1.75468    -15.730789
   1.78397    -15.723631
   1.81325    -15.718378
   1.84253    -15.715086
   1.87181    -15.713997
   1.87181    -15.713997
   1.92115    -15.714035
   1.97049    -15.714162
   2.01983    -15.714447
   2.06916    -15.714839
   2.11850    -15.715451
   2.16784    -15.716368
   2.21718    -15.717697
   2.26652    -15.719515
   2.31586    -15.721862
   2.36519    -15.724728
   2.41453    -15.728111
   2.46387    -15.731847
   2.51321    -15.735710
   2.56255    -15.739485
   2.61189    -15.743015
   2.66122    -15.745996
   2.71056    -15.748299
   2.75990    -15.749710
   2.80924    -15.750191
   2.80924    -15.750191
   2.86643    -15.749603
   2.92362    -15.748405
   2.98082    -15.747421
   3.03801    -15.747010
   3.09521    -15.747378
   3.15240    -15.748666
   3.20959    -15.751121
   3.26679    -15.755038
   3.32398    -15.760609
   3.38117    -15.767998
   3.43837    -15.777257
   3.49556    -15.788336
   3.55275    -15.801016
   3.60995    -15.814899
   3.66714    -15.829412
   3.72433    -15.843553
   3.78153    -15.855925
   3.83872    -15.864549
   3.89591    -15.867103
   3.89591    -15.867103
   3.92382    -15.865527
   3.95174    -15.861967
   3.97965    -15.856427
   4.00756    -15.849019
   4.03547    -15.839993
   4.06338    -15.829622
   4.09129    -15.818202
   4.11920    -15.806096
   4.14712    -15.793636
   4.17503    -15.781167
   4.20294    -15.768996
   4.23085    -15.757442
   4.25876    -15.746823
   4.28667    -15.737391
   4.31458    -15.729299
   4.34250    -15.722773
   4.37041    -15.717977
   4.39832    -15.715075
   4.42623    -15.714088
   4.42623    -15.714088
   4.47617    -15.714125
   4.52611    -15.714193
   4.57606    -15.714420
   4.62600    -15.714787
   4.67594    -15.715418
   4.72588    -15.716382
   4.77582    -15.717707
   4.82577    -15.719509
   4.87571    -15.721862
   4.92565    -15.724775
   4.97559    -15.728108
   5.02554    -15.731808
   5.07548    -15.735701
   5.12542    -15.739506
   5.17536    -15.743017
   5.22530    -15.746021
   5.27525    -15.748298
   5.32519    -15.749715
   5.37513    -15.750191
 
# Band-Index:    8
   5.37513    -15.750191
   5.32519    -15.745263
   5.27525    -15.738474
   5.22530    -15.730865
   5.17536    -15.722298
   5.12542    -15.712891
   5.07548    -15.703013
   5.02554    -15.693144
   4.97559    -15.683826
   4.92565    -15.675663
   4.87571    -15.669327
   4.82577    -15.665180
   4.77582    -15.663074
   4.72588    -15.662474
   4.67594    -15.662791
   4.62600    -15.663498
   4.57606    -15.664320
   4.52611    -15.665021
   4.47617    -15.665516
   4.42623    -15.665680
   4.42623    -15.665680
   4.39832    -15.665405
   4.37041    -15.664591
   4.34250    -15.663313
   4.31458    -15.661591
   4.28667    -15.659441
   4.25876    -15.656904
   4.23085    -15.653977
   4.20294    -15.650731
   4.17503    -15.647151
   4.14712    -15.643290
   4.11920    -15.639159
   4.09129    -15.634806
   4.06338    -15.630264
   4.03547    -15.625576
   4.00756    -15.620819
   3.97965    -15.616079
   3.95174    -15.611463
   3.92382    -15.607268
   3.89591    -15.604566
   3.89591    -15.604566
   3.83872    -15.606782
   3.78153    -15.611097
   3.72433    -15.615585
   3.66714    -15.619860
   3.60995    -15.623960
   3.55275    -15.628342
   3.49556    -15.633348
   3.43837    -15.639021
   3.38117    -15.645498
   3.32398    -15.653114
   3.26679    -15.662225
   3.20959    -15.673057
   3.15240    -15.685501
   3.09521    -15.698954
   3.03801    -15.712455
   2.98082    -15.724955
   2.92362    -15.735566
   2.86643    -15.744157
   2.80924    -15.750191
   2.80924    -15.750191
   2.75990    -15.745262
   2.71056    -15.738475
   2.66122    -15.730864
   2.61189    -15.722292
   2.56255    -15.712872
   2.51321    -15.703005
   2.46387    -15.693123
   2.41453    -15.683800
   2.36519    -15.675670
   2.31586    -15.669328
   2.26652    -15.665173
   2.21718    -15.663068
   2.16784    -15.662482
   2.11850    -15.662804
   2.06916    -15.663503
   2.01983    -15.664297
   1.97049    -15.665000
   1.92115    -15.665452
   1.87181    -15.665614
   1.87181    -15.665614
   1.84253    -15.665318
   1.81325    -15.664477
   1.78397    -15.663062
   1.75468    -15.661172
   1.72540    -15.658832
   1.69612    -15.656054
   1.66684    -15.652899
   1.63756    -15.649345
   1.60827    -15.645460
   1.57899    -15.641266
   1.54971    -15.636814
   1.52043    -15.632120
   1.49114    -15.627271
   1.46186    -15.622288
   1.43258    -15.617294
   1.40330    -15.612404
   1.37402    -15.607902
   1.34473    -15.604743
   1.31545    -15.604897
   1.31545    -15.604897
   1.25963    -15.608597
   1.20381    -15.612941
   1.14798    -15.617270
   1.09216    -15.621354
   1.03634    -15.625400
   0.98052    -15.629857
   0.92469    -15.634908
   0.86887    -15.640642
   0.81305    -15.647214
   0.75723    -15.654937
   0.70140    -15.664159
   0.64558    -15.675036
   0.58976    -15.687405
   0.53393    -15.700615
   0.47811    -15.713753
   0.42229    -15.725796
   0.36647    -15.736010
   0.31064    -15.744342
   0.25482    -15.750312
   0.25482    -15.750312
   0.24141    -15.750312
   0.22800    -15.750316
   0.21459    -15.750317
   0.20117    -15.750253
   0.18776    -15.750236
   0.17435    -15.750237
   0.16094    -15.750235
   0.14753    -15.750245
   0.13412    -15.750223
   0.12070    -15.750222
   0.10729    -15.750220
   0.09388    -15.750218
   0.08047    -15.750217
   0.06706    -15.750216
   0.05365    -15.750203
   0.04023    -15.750198
   0.02682    -15.750197
   0.01341    -15.750192
   0.00000    -15.750191
 
# Band-Index:    9
   0.00000    -15.603048
   0.01341    -15.603049
   0.02682    -15.603062
   0.04023    -15.603063
   0.05365    -15.603084
   0.06706    -15.603101
   0.08047    -15.603100
   0.09388    -15.603100
   0.10729    -15.603100
   0.12070    -15.603100
   0.13412    -15.603100
   0.14753    -15.603102
   0.16094    -15.603076
   0.17435    -15.603076
   0.18776    -15.603074
   0.20117    -15.603071
   0.21459    -15.603087
   0.22800    -15.603087
   0.24141    -15.603081
   0.25482    -15.603080
   0.25482    -15.603080
   0.31064    -15.603723
   0.36647    -15.605407
   0.42229    -15.607778
   0.47811    -15.610513
   0.53393    -15.613362
   0.58976    -15.616142
   0.64558    -15.618732
   0.70140    -15.620983
   0.75723    -15.622751
   0.81305    -15.623895
   0.86887    -15.624357
   0.92469    -15.623984
   0.98052    -15.622653
   1.03634    -15.620207
   1.09216    -15.616747
   1.14798    -15.612731
   1.20381    -15.608535
   1.25963    -15.604359
   1.31545    -15.601404
   1.31545    -15.601404
   1.34473    -15.601232
   1.37402    -15.600087
   1.40330    -15.598599
   1.43258    -15.597140
   1.46186    -15.595779
   1.49114    -15.594527
   1.52043    -15.593369
   1.54971    -15.592317
   1.57899    -15.591369
   1.60827    -15.590524
   1.63756    -15.589779
   1.66684    -15.589117
   1.69612    -15.588552
   1.72540    -15.588076
   1.75468    -15.587686
   1.78397    -15.587384
   1.81325    -15.587173
   1.84253    -15.587032
   1.87181    -15.586989
   1.87181    -15.586989
   1.92115    -15.587581
   1.97049    -15.589333
   2.01983    -15.592167
   2.06916    -15.595986
   2.11850    -15.600558
   2.16784    -15.605498
   2.21718    -15.610316
   2.26652    -15.614365
   2.31586    -15.616990
   2.36519    -15.617980
   2.41453    -15.617534
   2.46387    -15.616099
   2.51321    -15.614025
   2.56255    -15.611639
   2.61189    -15.609186
   2.66122    -15.606861
   2.71056    -15.604914
   2.75990    -15.603559
   2.80924    -15.603048
   2.80924    -15.603048
   2.86643    -15.603744
   2.92362    -15.605493
   2.98082    -15.607956
   3.03801    -15.610799
   3.09521    -15.613741
   3.15240    -15.616584
   3.20959    -15.619140
   3.26679    -15.621346
   3.32398    -15.623032
   3.38117    -15.624116
   3.43837    -15.624377
   3.49556    -15.623727
   3.55275    -15.621989
   3.60995    -15.619092
   3.66714    -15.615291
   3.72433    -15.611080
   3.78153    -15.606756
   3.83872    -15.602661
   3.89591    -15.601288
   3.89591    -15.601288
   3.92382    -15.600303
   3.95174    -15.598907
   3.97965    -15.597510
   4.00756    -15.596183
   4.03547    -15.594943
   4.06338    -15.593809
   4.09129    -15.592757
   4.11920    -15.591802
   4.14712    -15.590940
   4.17503    -15.590166
   4.20294    -15.589481
   4.23085    -15.588884
   4.25876    -15.588364
   4.28667    -15.587935
   4.31458    -15.587591
   4.34250    -15.587320
   4.37041    -15.587133
   4.39832    -15.587030
   4.42623    -15.586990
   4.42623    -15.586990
   4.47617    -15.587575
   4.52611    -15.589321
   4.57606    -15.592149
   4.62600    -15.595945
   4.67594    -15.600507
   4.72588    -15.605476
   4.77582    -15.610324
   4.82577    -15.614349
   4.87571    -15.616998
   4.92565    -15.617995
   4.97559    -15.617532
   5.02554    -15.616092
   5.07548    -15.614026
   5.12542    -15.611647
   5.17536    -15.609185
   5.22530    -15.606852
   5.27525    -15.604895
   5.32519    -15.603553
   5.37513    -15.603048
 
# Band-Index:   10
   5.37513    -15.603048
   5.32519    -15.602884
   5.27525    -15.602416
   5.22530    -15.601496
   5.17536    -15.600142
   5.12542    -15.598196
   5.07548    -15.595626
   5.02554    -15.592349
   4.97559    -15.588314
   4.92565    -15.583548
   4.87571    -15.578166
   4.82577    -15.572324
   4.77582    -15.566248
   4.72588    -15.560214
   4.67594    -15.554500
   4.62600    -15.549390
   4.57606    -15.545136
   4.52611    -15.541963
   4.47617    -15.539995
   4.42623    -15.539314
   4.42623    -15.539314
   4.39832    -15.539637
   4.37041    -15.540530
   4.34250    -15.542005
   4.31458    -15.543988
   4.28667    -15.546354
   4.25876    -15.549085
   4.23085    -15.552109
   4.20294    -15.555343
   4.17503    -15.558742
   4.14712    -15.562239
   4.11920    -15.565809
   4.09129    -15.569402
   4.06338    -15.573016
   4.03547    -15.576583
   4.00756    -15.580085
   3.97965    -15.583460
   3.95174    -15.586575
   3.92382    -15.589242
   3.89591    -15.590907
   3.89591    -15.590907
   3.83872    -15.587447
   3.78153    -15.579733
   3.72433    -15.572486
   3.66714    -15.566753
   3.60995    -15.562961
   3.55275    -15.561376
   3.49556    -15.562081
   3.43837    -15.564928
   3.38117    -15.569551
   3.32398    -15.575340
   3.26679    -15.581539
   3.20959    -15.587378
   3.15240    -15.592349
   3.09521    -15.596174
   3.03801    -15.598958
   2.98082    -15.600906
   2.92362    -15.602161
   2.86643    -15.602850
   2.80924    -15.603048
   2.80924    -15.603048
   2.75990    -15.602901
   2.71056    -15.602426
   2.66122    -15.601529
   2.61189    -15.600140
   2.56255    -15.598191
   2.51321    -15.595623
   2.46387    -15.592346
   2.41453    -15.588319
   2.36519    -15.583562
   2.31586    -15.578167
   2.26652    -15.572316
   2.21718    -15.566248
   2.16784    -15.560213
   2.11850    -15.554525
   2.06916    -15.549415
   2.01983    -15.545158
   1.97049    -15.541954
   1.92115    -15.539953
   1.87181    -15.539285
   1.87181    -15.539285
   1.84253    -15.539618
   1.81325    -15.540634
   1.78397    -15.542250
   1.75468    -15.544411
   1.72540    -15.547019
   1.69612    -15.549979
   1.66684    -15.553232
   1.63756    -15.556676
   1.60827    -15.560298
   1.57899    -15.563995
   1.54971    -15.567735
   1.52043    -15.571514
   1.49114    -15.575279
   1.46186    -15.578969
   1.43258    -15.582548
   1.40330    -15.585920
   1.37402    -15.588851
   1.34473    -15.590799
   1.31545    -15.590500
   1.31545    -15.590500
   1.25963    -15.584188
   1.20381    -15.576622
   1.14798    -15.570067
   1.09216    -15.565150
   1.03634    -15.562213
   0.98052    -15.561390
   0.92469    -15.562711
   0.86887    -15.566008
   0.81305    -15.570866
   0.75723    -15.576693
   0.70140    -15.582725
   0.64558    -15.588266
   0.58976    -15.592922
   0.53393    -15.596547
   0.47811    -15.599198
   0.42229    -15.601013
   0.36647    -15.602225
   0.31064    -15.602878
   0.25482    -15.603080
   0.25482    -15.603080
   0.24141    -15.603081
   0.22800    -15.603087
   0.21459    -15.603087
   0.20117    -15.603071
   0.18776    -15.603074
   0.17435    -15.603076
   0.16094    -15.603076
   0.14753    -15.603102
   0.13412    -15.603100
   0.12070    -15.603100
   0.10729    -15.603100
   0.09388    -15.603100
   0.08047    -15.603100
   0.06706    -15.603101
   0.05365    -15.603084
   0.04023    -15.603063
   0.02682    -15.603062
   0.01341    -15.603049
   0.00000    -15.603048
 
# Band-Index:   11
   0.00000    -15.071585
   0.01341    -15.071546
   0.02682    -15.071425
   0.04023    -15.071219
   0.05365    -15.070939
   0.06706    -15.070597
   0.08047    -15.070187
   0.09388    -15.069728
   0.10729    -15.069233
   0.12070    -15.068714
   0.13412    -15.068187
   0.14753    -15.067668
   0.16094    -15.067163
   0.17435    -15.066694
   0.18776    -15.066270
   0.20117    -15.065903
   0.21459    -15.065617
   0.22800    -15.065403
   0.24141    -15.065257
   0.25482    -15.065213
   0.25482    -15.065213
   0.31064    -15.053446
   0.36647    -15.018830
   0.42229    -14.963177
   0.47811    -14.888867
   0.53393    -14.798292
   0.58976    -14.693707
   0.64558    -14.577124
   0.70140    -14.450464
   0.75723    -14.315623
   0.81305    -14.174605
   0.86887    -14.029768
   0.92469    -13.883727
   0.98052    -13.739551
   1.03634    -13.600838
   1.09216    -13.471970
   1.14798    -13.358431
   1.20381    -13.267476
   1.25963    -13.207280
   1.31545    -13.181660
   1.31545    -13.181660
   1.34473    -13.180885
   1.37402    -13.187454
   1.40330    -13.200334
   1.43258    -13.218551
   1.46186    -13.241223
   1.49114    -13.267457
   1.52043    -13.296331
   1.54971    -13.326963
   1.57899    -13.358429
   1.60827    -13.389828
   1.63756    -13.420342
   1.66684    -13.449206
   1.69612    -13.475713
   1.72540    -13.499248
   1.75468    -13.519265
   1.78397    -13.535325
   1.81325    -13.547074
   1.84253    -13.554209
   1.87181    -13.556611
   1.87181    -13.556611
   1.92115    -13.573682
   1.97049    -13.622004
   2.01983    -13.695306
   2.06916    -13.787075
   2.11850    -13.891722
   2.16784    -14.004651
   2.21718    -14.122102
   2.26652    -14.241022
   2.31586    -14.358757
   2.36519    -14.473140
   2.41453    -14.582296
   2.46387    -14.684530
   2.51321    -14.778215
   2.56255    -14.861803
   2.61189    -14.933709
   2.66122    -14.992242
   2.71056    -15.035702
   2.75990    -15.062518
   2.80924    -15.071585
   2.80924    -15.071585
   2.86643    -15.059325
   2.92362    -15.023239
   2.98082    -14.965270
   3.03801    -14.887933
   3.09521    -14.793769
   3.15240    -14.685074
   3.20959    -14.563968
   3.26679    -14.432515
   3.32398    -14.292698
   3.38117    -14.146780
   3.43837    -13.997315
   3.49556    -13.847283
   3.55275    -13.700112
   3.60995    -13.559912
   3.66714    -13.431756
   3.72433    -13.322135
   3.78153    -13.239530
   3.83872    -13.192059
   3.89591    -13.180597
   3.89591    -13.180597
   3.92382    -13.186134
   3.95174    -13.197696
   3.97965    -13.214403
   4.00756    -13.235421
   4.03547    -13.259943
   4.06338    -13.287187
   4.09129    -13.316272
   4.11920    -13.346411
   4.14712    -13.376810
   4.17503    -13.406710
   4.20294    -13.435435
   4.23085    -13.462353
   4.25876    -13.486902
   4.28667    -13.508586
   4.31458    -13.526965
   4.34250    -13.541643
   4.37041    -13.552349
   4.39832    -13.558864
   4.42623    -13.561051
   4.42623    -13.561051
   4.47617    -13.577800
   4.52611    -13.625385
   4.57606    -13.697842
   4.62600    -13.788804
   4.67594    -13.892793
   4.72588    -14.005239
   4.77582    -14.122330
   4.82577    -14.240944
   4.87571    -14.358494
   4.92565    -14.472787
   4.97559    -14.581906
   5.02554    -14.684142
   5.07548    -14.777868
   5.12542    -14.861549
   5.17536    -14.933532
   5.22530    -14.992125
   5.27525    -15.035646
   5.32519    -15.062505
   5.37513    -15.071585
 
# Band-Index:   12
   5.37513    -14.409651
   5.32519    -14.404032
   5.27525    -14.387182
   5.22530    -14.359174
   5.17536    -14.320214
   5.12542    -14.270629
   5.07548    -14.210939
   5.02554    -14.141908
   4.97559    -14.064594
   4.92565    -13.980416
   4.87571    -13.891237
   4.82577    -13.799317
   4.77582    -13.707445
   4.72588    -13.618859
   4.67594    -13.537221
   4.62600    -13.466343
   4.57606    -13.409754
   4.52611    -13.369781
   4.47617    -13.346843
   4.42623    -13.339533
   4.42623    -13.339533
   4.39832    -13.338102
   4.37041    -13.333819
   4.34250    -13.326761
   4.31458    -13.317016
   4.28667    -13.304695
   4.25876    -13.289975
   4.23085    -13.273042
   4.20294    -13.254160
   4.17503    -13.233554
   4.14712    -13.211505
   4.11920    -13.188376
   4.09129    -13.164543
   4.06338    -13.140501
   4.03547    -13.116830
   4.00756    -13.094364
   3.97965    -13.074169
   3.95174    -13.057550
   3.92382    -13.045865
   3.89591    -13.040392
   3.89591    -13.040392
   3.83872    -13.049920
   3.78153    -13.082316
   3.72433    -13.131325
   3.66714    -13.196460
   3.60995    -13.278027
   3.55275    -13.374263
   3.49556    -13.481856
   3.43837    -13.596638
   3.38117    -13.714279
   3.32398    -13.830683
   3.26679    -13.942179
   3.20959    -14.045711
   3.15240    -14.138889
   3.09521    -14.219865
   3.03801    -14.287371
   2.98082    -14.340562
   2.92362    -14.378865
   2.86643    -14.401951
   2.80924    -14.409651
   2.80924    -14.409651
   2.75990    -14.403986
   2.71056    -14.386996
   2.66122    -14.358768
   2.61189    -14.319543
   2.56255    -14.269685
   2.51321    -14.209780
   2.46387    -14.140582
   2.41453    -14.063211
   2.36519    -13.979151
   2.31586    -13.890245
   2.26652    -13.798820
   2.21718    -13.707680
   2.16784    -13.620059
   2.11850    -13.539581
   2.06916    -13.469966
   2.01983    -13.414624
   1.97049    -13.375832
   1.92115    -13.353806
   1.87181    -13.346880
   1.87181    -13.346880
   1.84253    -13.345290
   1.81325    -13.340586
   1.78397    -13.332764
   1.75468    -13.321970
   1.72540    -13.308349
   1.69612    -13.292067
   1.66684    -13.273381
   1.63756    -13.252506
   1.60827    -13.229781
   1.57899    -13.205534
   1.54971    -13.180184
   1.52043    -13.154245
   1.49114    -13.128365
   1.46186    -13.103458
   1.43258    -13.080665
   1.40330    -13.061538
   1.37402    -13.047693
   1.34473    -13.040703
   1.31545    -13.041416
   1.31545    -13.041416
   1.25963    -13.062653
   1.20381    -13.103359
   1.14798    -13.159607
   1.09216    -13.231680
   1.03634    -13.319063
   0.98052    -13.419419
   0.92469    -13.529188
   0.86887    -13.644377
   0.81305    -13.760895
   0.75723    -13.875035
   0.70140    -13.983465
   0.64558    -14.083529
   0.58976    -14.173182
   0.53393    -14.250801
   0.47811    -14.315320
   0.42229    -14.366038
   0.36647    -14.402517
   0.31064    -14.424494
   0.25482    -14.431843
   0.25482    -14.431843
   0.24141    -14.431694
   0.22800    -14.431263
   0.21459    -14.430540
   0.20117    -14.429526
   0.18776    -14.428299
   0.17435    -14.426845
   0.16094    -14.425250
   0.14753    -14.423538
   0.13412    -14.421736
   0.12070    -14.419908
   0.10729    -14.418102
   0.09388    -14.416365
   0.08047    -14.414747
   0.06706    -14.413294
   0.05365    -14.412036
   0.04023    -14.411021
   0.02682    -14.410277
   0.01341    -14.409805
   0.00000    -14.409651
 
# Band-Index:   13
   0.00000    -13.404985
   0.01341    -13.404683
   0.02682    -13.403782
   0.04023    -13.402290
   0.05365    -13.400271
   0.06706    -13.397746
   0.08047    -13.394790
   0.09388    -13.391484
   0.10729    -13.387913
   0.12070    -13.384171
   0.13412    -13.380358
   0.14753    -13.376590
   0.16094    -13.372911
   0.17435    -13.369502
   0.18776    -13.366423
   0.20117    -13.363778
   0.21459    -13.361645
   0.22800    -13.360062
   0.24141    -13.359088
   0.25482    -13.358762
   0.25482    -13.358762
   0.31064    -13.350224
   0.36647    -13.325044
   0.42229    -13.284506
   0.47811    -13.230615
   0.53393    -13.165943
   0.58976    -13.093390
   0.64558    -13.016169
   0.70140    -12.937664
   0.75723    -12.861266
   0.81305    -12.790393
   0.86887    -12.728279
   0.92469    -12.677837
   0.98052    -12.641491
   1.03634    -12.620435
   1.09216    -12.614784
   1.14798    -12.622869
   1.20381    -12.640695
   1.25963    -12.661058
   1.31545    -12.673672
   1.31545    -12.673672
   1.34473    -12.674115
   1.37402    -12.669862
   1.40330    -12.661700
   1.43258    -12.650887
   1.46186    -12.638736
   1.49114    -12.626227
   1.52043    -12.614127
   1.54971    -12.602889
   1.57899    -12.592786
   1.60827    -12.583873
   1.63756    -12.576186
   1.66684    -12.569700
   1.69612    -12.564323
   1.72540    -12.559984
   1.75468    -12.556563
   1.78397    -12.554006
   1.81325    -12.552231
   1.84253    -12.551167
   1.87181    -12.550816
   1.87181    -12.550816
   1.92115    -12.554641
   1.97049    -12.566489
   2.01983    -12.587201
   2.06916    -12.617729
   2.11850    -12.658344
   2.16784    -12.708683
   2.21718    -12.767559
   2.26652    -12.833304
   2.31586    -12.903767
   2.36519    -12.976772
   2.41453    -13.050015
   2.46387    -13.121343
   2.51321    -13.188605
   2.56255    -13.249755
   2.61189    -13.302915
   2.66122    -13.346318
   2.71056    -13.378521
   2.75990    -13.398315
   2.80924    -13.404985
   2.80924    -13.404985
   2.86643    -13.396003
   2.92362    -13.369463
   2.98082    -13.326728
   3.03801    -13.269901
   3.09521    -13.201658
   3.15240    -13.124975
   3.20959    -13.043144
   3.26679    -12.959745
   3.32398    -12.878338
   3.38117    -12.802620
   3.43837    -12.736300
   3.49556    -12.682839
   3.55275    -12.644928
   3.60995    -12.624232
   3.66714    -12.620506
   3.72433    -12.631074
   3.78153    -12.650210
   3.83872    -12.668369
   3.89591    -12.674326
   3.89591    -12.674326
   3.92382    -12.670929
   3.95174    -12.663933
   3.97965    -12.654356
   4.00756    -12.643317
   4.03547    -12.631764
   4.06338    -12.620423
   4.09129    -12.609740
   4.11920    -12.599998
   4.14712    -12.591325
   4.17503    -12.583786
   4.20294    -12.577339
   4.23085    -12.571942
   4.25876    -12.567501
   4.28667    -12.563958
   4.31458    -12.561180
   4.34250    -12.559095
   4.37041    -12.557686
   4.39832    -12.556870
   4.42623    -12.556572
   4.42623    -12.556572
   4.47617    -12.560396
   4.52611    -12.572137
   4.57606    -12.592456
   4.62600    -12.622051
   4.67594    -12.661351
   4.72588    -12.710104
   4.77582    -12.767417
   4.82577    -12.831772
   4.87571    -12.901256
   4.92565    -12.973712
   4.97559    -13.046836
   5.02554    -13.118345
   5.07548    -13.186016
   5.12542    -13.247745
   5.17536    -13.301495
   5.22530    -13.345473
   5.27525    -13.378121
   5.32519    -13.398202
   5.37513    -13.404985
 
# Band-Index:   14
   5.37513    -12.683723
   5.32519    -12.679812
   5.27525    -12.668121
   5.22530    -12.648904
   5.17536    -12.622591
   5.12542    -12.589781
   5.07548    -12.551240
   5.02554    -12.507924
   4.97559    -12.460898
   4.92565    -12.411378
   4.87571    -12.360722
   4.82577    -12.310342
   4.77582    -12.261669
   4.72588    -12.216113
   4.67594    -12.175061
   4.62600    -12.139720
   4.57606    -12.111188
   4.52611    -12.090268
   4.47617    -12.077511
   4.42623    -12.073226
   4.42623    -12.073226
   4.39832    -12.072819
   4.37041    -12.071582
   4.34250    -12.069567
   4.31458    -12.066804
   4.28667    -12.063319
   4.25876    -12.059193
   4.23085    -12.054515
   4.20294    -12.049371
   4.17503    -12.043866
   4.14712    -12.038115
   4.11920    -12.032251
   4.09129    -12.026421
   4.06338    -12.020777
   4.03547    -12.015468
   4.00756    -12.010679
   3.97965    -12.006573
   3.95174    -12.003309
   3.92382    -12.001050
   3.89591    -11.999985
   3.89591    -11.999985
   3.83872    -12.002097
   3.78153    -12.010860
   3.72433    -12.027002
   3.66714    -12.050822
   3.60995    -12.082206
   3.55275    -12.120774
   3.49556    -12.165917
   3.43837    -12.216773
   3.38117    -12.272208
   3.32398    -12.330692
   3.26679    -12.390352
   3.20959    -12.449128
   3.15240    -12.504940
   3.09521    -12.555771
   3.03801    -12.599836
   2.98082    -12.635683
   2.92362    -12.662116
   2.86643    -12.678297
   2.80924    -12.683723
   2.80924    -12.683723
   2.75990    -12.679739
   2.71056    -12.667839
   2.66122    -12.648288
   2.61189    -12.621547
   2.56255    -12.588285
   2.51321    -12.549339
   2.46387    -12.505688
   2.41453    -12.458514
   2.36519    -12.409125
   2.31586    -12.358891
   2.26652    -12.309251
   2.21718    -12.261566
   2.16784    -12.217125
   2.11850    -12.177058
   2.06916    -12.142385
   2.01983    -12.114061
   1.97049    -12.093021
   1.92115    -12.080018
   1.87181    -12.075618
   1.87181    -12.075618
   1.84253    -12.075139
   1.81325    -12.073730
   1.78397    -12.071384
   1.75468    -12.068173
   1.72540    -12.064168
   1.69612    -12.059438
   1.66684    -12.054105
   1.63756    -12.048287
   1.60827    -12.042135
   1.57899    -12.035794
   1.54971    -12.029431
   1.52043    -12.023242
   1.49114    -12.017408
   1.46186    -12.012105
   1.43258    -12.007530
   1.40330    -12.003881
   1.37402    -12.001325
   1.34473    -12.000038
   1.31545    -12.000193
   1.31545    -12.000193
   1.25963    -12.005020
   1.20381    -12.016571
   1.14798    -12.035634
   1.09216    -12.062685
   1.03634    -12.097823
   0.98052    -12.140697
   0.92469    -12.190494
   0.86887    -12.245964
   0.81305    -12.305432
   0.75723    -12.367006
   0.70140    -12.428607
   0.64558    -12.488219
   0.58976    -12.543965
   0.53393    -12.594094
   0.47811    -12.637124
   0.42229    -12.671837
   0.36647    -12.697308
   0.31064    -12.712852
   0.25482    -12.718073
   0.25482    -12.718073
   0.24141    -12.717825
   0.22800    -12.717101
   0.21459    -12.715902
   0.20117    -12.714259
   0.18776    -12.712259
   0.17435    -12.709942
   0.16094    -12.707387
   0.14753    -12.704670
   0.13412    -12.701848
   0.12070    -12.699021
   0.10729    -12.696258
   0.09388    -12.693632
   0.08047    -12.691209
   0.06706    -12.689050
   0.05365    -12.687201
   0.04023    -12.685718
   0.02682    -12.684634
   0.01341    -12.683957
   0.00000    -12.683723
 
# Band-Index:   15
   0.00000     -6.937250
   0.01341     -6.937597
   0.02682     -6.938723
   0.04023     -6.940348
   0.05365     -6.942560
   0.06706     -6.945210
   0.08047     -6.948214
   0.09388     -6.951476
   0.10729     -6.954891
   0.12070     -6.958356
   0.13412     -6.961773
   0.14753     -6.965085
   0.16094     -6.968085
   0.17435     -6.970873
   0.18776     -6.973308
   0.20117     -6.975379
   0.21459     -6.977088
   0.22800     -6.978285
   0.24141     -6.978933
   0.25482     -6.979176
   0.25482     -6.979176
   0.31064     -6.975940
   0.36647     -6.966424
   0.42229     -6.951560
   0.47811     -6.932981
   0.53393     -6.912953
   0.58976     -6.894521
   0.64558     -6.881779
   0.70140     -6.879491
   0.75723     -6.892887
   0.81305     -6.926321
   0.86887     -6.980647
   0.92469     -7.050605
   0.98052     -7.126407
   1.03634     -7.196395
   1.09216     -7.251215
   1.14798     -7.285943
   1.20381     -7.300698
   1.25963     -7.301444
   1.31545     -7.298645
   1.31545     -7.298645
   1.34473     -7.299844
   1.37402     -7.304706
   1.40330     -7.313805
   1.43258     -7.327084
   1.46186     -7.344168
   1.49114     -7.364203
   1.52043     -7.386299
   1.54971     -7.409611
   1.57899     -7.433315
   1.60827     -7.456603
   1.63756     -7.478908
   1.66684     -7.499650
   1.69612     -7.518370
   1.72540     -7.534768
   1.75468     -7.548492
   1.78397     -7.559390
   1.81325     -7.567316
   1.84253     -7.572072
   1.87181     -7.573678
   1.87181     -7.573678
   1.92115     -7.556257
   1.97049     -7.505441
   2.01983     -7.425466
   2.06916     -7.323468
   2.11850     -7.209136
   2.16784     -7.094341
   2.21718     -6.992164
   2.26652     -6.912966
   2.31586     -6.861024
   2.36519     -6.834444
   2.41453     -6.827802
   2.46387     -6.835213
   2.51321     -6.851216
   2.56255     -6.871283
   2.61189     -6.891965
   2.66122     -6.910537
   2.71056     -6.925058
   2.75990     -6.934201
   2.80924     -6.937250
   2.80924     -6.937250
   2.86643     -6.933056
   2.92362     -6.920593
   2.98082     -6.901248
   3.03801     -6.877372
   3.09521     -6.852503
   3.15240     -6.831347
   3.20959     -6.819709
   3.26679     -6.824088
   3.32398     -6.850109
   3.38117     -6.900628
   3.43837     -6.973160
   3.49556     -7.058600
   3.55275     -7.144367
   3.60995     -7.218435
   3.66714     -7.272145
   3.72433     -7.301770
   3.78153     -7.309664
   3.83872     -7.304242
   3.89591     -7.298676
   3.89591     -7.298676
   3.92382     -7.299975
   3.95174     -7.305395
   3.97965     -7.315079
   4.00756     -7.328760
   4.03547     -7.345938
   4.06338     -7.365678
   4.09129     -7.387101
   4.11920     -7.409389
   4.14712     -7.431796
   4.17503     -7.453670
   4.20294     -7.474459
   4.23085     -7.493769
   4.25876     -7.511159
   4.28667     -7.526338
   4.31458     -7.539099
   4.34250     -7.549155
   4.37041     -7.556456
   4.39832     -7.560888
   4.42623     -7.562344
   4.42623     -7.562344
   4.47617     -7.545598
   4.52611     -7.496609
   4.57606     -7.419640
   4.62600     -7.321416
   4.67594     -7.211513
   4.72588     -7.101375
   4.77582     -7.003287
   4.82577     -6.926620
   4.87571     -6.875416
   4.92565     -6.847764
   4.97559     -6.839048
   5.02554     -6.843809
   5.07548     -6.857221
   5.12542     -6.875201
   5.17536     -6.894235
   5.22530     -6.911669
   5.27525     -6.925492
   5.32519     -6.934272
   5.37513     -6.937250
 
# Band-Index:   16
   5.37513     -6.575988
   5.32519     -6.576047
   5.27525     -6.576155
   5.22530     -6.576008
   5.17536     -6.575316
   5.12542     -6.573520
   5.07548     -6.570263
   5.02554     -6.565101
   4.97559     -6.557553
   4.92565     -6.547585
   4.87571     -6.535292
   4.82577     -6.521481
   4.77582     -6.508187
   4.72588     -6.500482
   4.67594     -6.513831
   4.62600     -6.570986
   4.57606     -6.651065
   4.52611     -6.721028
   4.47617     -6.766560
   4.42623     -6.782196
   4.42623     -6.782196
   4.39832     -6.782013
   4.37041     -6.781340
   4.34250     -6.780345
   4.31458     -6.779173
   4.28667     -6.777973
   4.25876     -6.776970
   4.23085     -6.776470
   4.20294     -6.776800
   4.17503     -6.778243
   4.14712     -6.781143
   4.11920     -6.785802
   4.09129     -6.792266
   4.06338     -6.800500
   4.03547     -6.810083
   4.00756     -6.820372
   3.97965     -6.830355
   3.95174     -6.838745
   3.92382     -6.844221
   3.89591     -6.845877
   3.89591     -6.845877
   3.83872     -6.834332
   3.78153     -6.801279
   3.72433     -6.746407
   3.66714     -6.670830
   3.60995     -6.580953
   3.55275     -6.503547
   3.49556     -6.480517
   3.43837     -6.489447
   3.38117     -6.506371
   3.32398     -6.524428
   3.26679     -6.541047
   3.20959     -6.554611
   3.15240     -6.564532
   3.09521     -6.570812
   3.03801     -6.574192
   2.98082     -6.575724
   2.92362     -6.576188
   2.86643     -6.576166
   2.80924     -6.575988
   2.80924     -6.575988
   2.75990     -6.576100
   2.71056     -6.576225
   2.66122     -6.576000
   2.61189     -6.575217
   2.56255     -6.573260
   2.51321     -6.569770
   2.46387     -6.564106
   2.41453     -6.555909
   2.36519     -6.545496
   2.31586     -6.533489
   2.26652     -6.521001
   2.21718     -6.509695
   2.16784     -6.502710
   2.11850     -6.508667
   2.06916     -6.550561
   2.01983     -6.625013
   1.97049     -6.693780
   1.92115     -6.738880
   1.87181     -6.754432
   1.87181     -6.754432
   1.84253     -6.754219
   1.81325     -6.753639
   1.78397     -6.752727
   1.75468     -6.751707
   1.72540     -6.750807
   1.69612     -6.750323
   1.66684     -6.750652
   1.63756     -6.752124
   1.60827     -6.755180
   1.57899     -6.760115
   1.54971     -6.767190
   1.52043     -6.776576
   1.49114     -6.788036
   1.46186     -6.801014
   1.43258     -6.814474
   1.40330     -6.827173
   1.37402     -6.837522
   1.34473     -6.844145
   1.31545     -6.845758
   1.31545     -6.845758
   1.25963     -6.832607
   1.20381     -6.796680
   1.14798     -6.738657
   1.09216     -6.661694
   1.03634     -6.577161
   0.98052     -6.515889
   0.92469     -6.500524
   0.86887     -6.508893
   0.81305     -6.523926
   0.75723     -6.539351
   0.70140     -6.552328
   0.64558     -6.562159
   0.58976     -6.568968
   0.53393     -6.573121
   0.47811     -6.575395
   0.42229     -6.576312
   0.36647     -6.576486
   0.31064     -6.576212
   0.25482     -6.576020
   0.25482     -6.576020
   0.24141     -6.576019
   0.22800     -6.576027
   0.21459     -6.576025
   0.20117     -6.575988
   0.18776     -6.575996
   0.17435     -6.575999
   0.16094     -6.576000
   0.14753     -6.576090
   0.13412     -6.576090
   0.12070     -6.576092
   0.10729     -6.576093
   0.09388     -6.576094
   0.08047     -6.576094
   0.06706     -6.576093
   0.05365     -6.576076
   0.04023     -6.575997
   0.02682     -6.575998
   0.01341     -6.575989
   0.00000     -6.575988
 
# Band-Index:   17
   0.00000     -6.575988
   0.01341     -6.575989
   0.02682     -6.575998
   0.04023     -6.575997
   0.05365     -6.576076
   0.06706     -6.576093
   0.08047     -6.576094
   0.09388     -6.576094
   0.10729     -6.576093
   0.12070     -6.576092
   0.13412     -6.576090
   0.14753     -6.576090
   0.16094     -6.576000
   0.17435     -6.575999
   0.18776     -6.575996
   0.20117     -6.575988
   0.21459     -6.576025
   0.22800     -6.576027
   0.24141     -6.576019
   0.25482     -6.576020
   0.25482     -6.576020
   0.31064     -6.573992
   0.36647     -6.567914
   0.42229     -6.557784
   0.47811     -6.544103
   0.53393     -6.527051
   0.58976     -6.507249
   0.64558     -6.485343
   0.70140     -6.462248
   0.75723     -6.438456
   0.81305     -6.415012
   0.86887     -6.393263
   0.92469     -6.374413
   0.98052     -6.359873
   1.03634     -6.383021
   1.09216     -6.387625
   1.14798     -6.385701
   1.20381     -6.383306
   1.25963     -6.381790
   1.31545     -6.381024
   1.31545     -6.381024
   1.34473     -6.380918
   1.37402     -6.381076
   1.40330     -6.381514
   1.43258     -6.382298
   1.46186     -6.383565
   1.49114     -6.385398
   1.52043     -6.387686
   1.54971     -6.390588
   1.57899     -6.393896
   1.60827     -6.397588
   1.63756     -6.401490
   1.66684     -6.405499
   1.69612     -6.409347
   1.72540     -6.412919
   1.75468     -6.415985
   1.78397     -6.418527
   1.81325     -6.420402
   1.84253     -6.421481
   1.87181     -6.421859
   1.87181     -6.421859
   1.92115     -6.422238
   1.97049     -6.422734
   2.01983     -6.420621
   2.06916     -6.405113
   2.11850     -6.376256
   2.16784     -6.390926
   2.21718     -6.407816
   2.26652     -6.426302
   2.31586     -6.445828
   2.36519     -6.465877
   2.41453     -6.485694
   2.46387     -6.504628
   2.51321     -6.522173
   2.56255     -6.537797
   2.61189     -6.551262
   2.66122     -6.561985
   2.71056     -6.569762
   2.75990     -6.574414
   2.80924     -6.575988
   2.80924     -6.575988
   2.86643     -6.573874
   2.92362     -6.567400
   2.98082     -6.556870
   3.03801     -6.542494
   3.09521     -6.524745
   3.15240     -6.504218
   3.20959     -6.481318
   3.26679     -6.457407
   3.32398     -6.433359
   3.38117     -6.410631
   3.43837     -6.390919
   3.49556     -6.376908
   3.55275     -6.380639
   3.60995     -6.390317
   3.66714     -6.387864
   3.72433     -6.384130
   3.78153     -6.381895
   3.83872     -6.380985
   3.89591     -6.380916
   3.89591     -6.380916
   3.92382     -6.381057
   3.95174     -6.381358
   3.97965     -6.381617
   4.00756     -6.381918
   4.03547     -6.382326
   4.06338     -6.382816
   4.09129     -6.383318
   4.11920     -6.383839
   4.14712     -6.384349
   4.17503     -6.384818
   4.20294     -6.385186
   4.23085     -6.385468
   4.25876     -6.385634
   4.28667     -6.385683
   4.31458     -6.385695
   4.34250     -6.385567
   4.37041     -6.385399
   4.39832     -6.385365
   4.42623     -6.385337
   4.42623     -6.385337
   4.47617     -6.386301
   4.52611     -6.388848
   4.57606     -6.391249
   4.62600     -6.386872
   4.67594     -6.376167
   4.72588     -6.390957
   4.77582     -6.407824
   4.82577     -6.426355
   4.87571     -6.445829
   4.92565     -6.465811
   4.97559     -6.485636
   5.02554     -6.504657
   5.07548     -6.522169
   5.12542     -6.537816
   5.17536     -6.551271
   5.22530     -6.561901
   5.27525     -6.569733
   5.32519     -6.574366
   5.37513     -6.575988
 
# Band-Index:   18
   5.37513     -6.287142
   5.32519     -6.285765
   5.27525     -6.281490
   5.22530     -6.274190
   5.17536     -6.264237
   5.12542     -6.251987
   5.07548     -6.238392
   5.02554     -6.225266
   4.97559     -6.215275
   4.92565     -6.211859
   4.87571     -6.217429
   4.82577     -6.232932
   4.77582     -6.260432
   4.72588     -6.303839
   4.67594     -6.357251
   4.62600     -6.363798
   4.57606     -6.354095
   4.52611     -6.347232
   4.47617     -6.343097
   4.42623     -6.341677
   4.42623     -6.341677
   4.39832     -6.341484
   4.37041     -6.340690
   4.34250     -6.339624
   4.31458     -6.338292
   4.28667     -6.336659
   4.25876     -6.335041
   4.23085     -6.333624
   4.20294     -6.332460
   4.17503     -6.331707
   4.14712     -6.331307
   4.11920     -6.331252
   4.09129     -6.331467
   4.06338     -6.331885
   4.03547     -6.332232
   4.00756     -6.332550
   3.97965     -6.332679
   3.95174     -6.332584
   3.92382     -6.332341
   3.89591     -6.332114
   3.89591     -6.332114
   3.83872     -6.331894
   3.78153     -6.332677
   3.72433     -6.335012
   3.66714     -6.338884
   3.60995     -6.343749
   3.55275     -6.343788
   3.49556     -6.304022
   3.43837     -6.262152
   3.38117     -6.243803
   3.32398     -6.237773
   3.26679     -6.238440
   3.20959     -6.243545
   3.15240     -6.251474
   3.09521     -6.260544
   3.03801     -6.269264
   2.98082     -6.276880
   2.92362     -6.282651
   2.86643     -6.286154
   2.80924     -6.287142
   2.80924     -6.287142
   2.75990     -6.286252
   2.71056     -6.283305
   2.66122     -6.278329
   2.61189     -6.271676
   2.56255     -6.263750
   2.51321     -6.255353
   2.46387     -6.247246
   2.41453     -6.240691
   2.36519     -6.236861
   2.31586     -6.236769
   2.26652     -6.242037
   2.21718     -6.257082
   2.16784     -6.292168
   2.11850     -6.353842
   2.06916     -6.363926
   2.01983     -6.354224
   1.97049     -6.347265
   1.92115     -6.342977
   1.87181     -6.341604
   1.87181     -6.341604
   1.84253     -6.341500
   1.81325     -6.341393
   1.78397     -6.340973
   1.75468     -6.340429
   1.72540     -6.339680
   1.69612     -6.338697
   1.66684     -6.337564
   1.63756     -6.336212
   1.60827     -6.334993
   1.57899     -6.333740
   1.54971     -6.332655
   1.52043     -6.331935
   1.49114     -6.331528
   1.46186     -6.331324
   1.43258     -6.331339
   1.40330     -6.331561
   1.37402     -6.331742
   1.34473     -6.331935
   1.31545     -6.332148
   1.31545     -6.332148
   1.25963     -6.332700
   1.20381     -6.333911
   1.14798     -6.336565
   1.09216     -6.341234
   1.03634     -6.348586
   0.98052     -6.353676
   0.92469     -6.300912
   0.86887     -6.256977
   0.81305     -6.227317
   0.75723     -6.206259
   0.70140     -6.189595
   0.64558     -6.175077
   0.58976     -6.161715
   0.53393     -6.149142
   0.47811     -6.137443
   0.42229     -6.126960
   0.36647     -6.118201
   0.31064     -6.112040
   0.25482     -6.109738
   0.25482     -6.109738
   0.24141     -6.109737
   0.22800     -6.109786
   0.21459     -6.109785
   0.20117     -6.109612
   0.18776     -6.109856
   0.17435     -6.125232
   0.16094     -6.141989
   0.14753     -6.159544
   0.13412     -6.177380
   0.12070     -6.195049
   0.10729     -6.212101
   0.09388     -6.228143
   0.08047     -6.242819
   0.06706     -6.255812
   0.05365     -6.266841
   0.04023     -6.275678
   0.02682     -6.282130
   0.01341     -6.285902
   0.00000     -6.287142
 
# Band-Index:   19
   0.00000     -6.109406
   0.01341     -6.109412
   0.02682     -6.109457
   0.04023     -6.109456
   0.05365     -6.109512
   0.06706     -6.109623
   0.08047     -6.109623
   0.09388     -6.109622
   0.10729     -6.109618
   0.12070     -6.109613
   0.13412     -6.109606
   0.14753     -6.109655
   0.16094     -6.109598
   0.17435     -6.109592
   0.18776     -6.109567
   0.20117     -6.109612
   0.21459     -6.109785
   0.22800     -6.109786
   0.24141     -6.109737
   0.25482     -6.109738
   0.25482     -6.109738
   0.31064     -6.109670
   0.36647     -6.109720
   0.42229     -6.109682
   0.47811     -6.109621
   0.53393     -6.109446
   0.58976     -6.108886
   0.64558     -6.108056
   0.70140     -6.106972
   0.75723     -6.106825
   0.81305     -6.116228
   0.86887     -6.133080
   0.92469     -6.146381
   0.98052     -6.158081
   1.03634     -6.171154
   1.09216     -6.181147
   1.14798     -6.186549
   1.20381     -6.188832
   1.25963     -6.189573
   1.31545     -6.190347
   1.31545     -6.190347
   1.34473     -6.191311
   1.37402     -6.192872
   1.40330     -6.195214
   1.43258     -6.198330
   1.46186     -6.202177
   1.49114     -6.206457
   1.52043     -6.211036
   1.54971     -6.215689
   1.57899     -6.220327
   1.60827     -6.224740
   1.63756     -6.228897
   1.66684     -6.232844
   1.69612     -6.236512
   1.72540     -6.239851
   1.75468     -6.242740
   1.78397     -6.245135
   1.81325     -6.246966
   1.84253     -6.248034
   1.87181     -6.248431
   1.87181     -6.248431
   1.92115     -6.246922
   1.97049     -6.242539
   2.01983     -6.235085
   2.06916     -6.224565
   2.11850     -6.210749
   2.16784     -6.196884
   2.21718     -6.187138
   2.26652     -6.177730
   2.31586     -6.166973
   2.36519     -6.156889
   2.41453     -6.148204
   2.46387     -6.140636
   2.51321     -6.133692
   2.56255     -6.127091
   2.61189     -6.121301
   2.66122     -6.116430
   2.71056     -6.112743
   2.75990     -6.110276
   2.80924     -6.109406
   2.80924     -6.109406
   2.86643     -6.110612
   2.92362     -6.113841
   2.98082     -6.118686
   3.03801     -6.124944
   3.09521     -6.132457
   3.15240     -6.140511
   3.20959     -6.148866
   3.26679     -6.157757
   3.32398     -6.166862
   3.38117     -6.175392
   3.43837     -6.182571
   3.49556     -6.188756
   3.55275     -6.194154
   3.60995     -6.197780
   3.66714     -6.199164
   3.72433     -6.198508
   3.78153     -6.196217
   3.83872     -6.193110
   3.89591     -6.190607
   3.89591     -6.190607
   3.92382     -6.190184
   3.95174     -6.190647
   3.97965     -6.192086
   4.00756     -6.194521
   4.03547     -6.197905
   4.06338     -6.202112
   4.09129     -6.206868
   4.11920     -6.211868
   4.14712     -6.217019
   4.17503     -6.222087
   4.20294     -6.226939
   4.23085     -6.231469
   4.25876     -6.235659
   4.28667     -6.239373
   4.31458     -6.242593
   4.34250     -6.245117
   4.37041     -6.247041
   4.39832     -6.248193
   4.42623     -6.248552
   4.42623     -6.248552
   4.47617     -6.246819
   4.52611     -6.241437
   4.57606     -6.231840
   4.62600     -6.216592
   4.67594     -6.194642
   4.72588     -6.170731
   4.77582     -6.155735
   4.82577     -6.148620
   4.87571     -6.145441
   4.92565     -6.143998
   4.97559     -6.141927
   5.02554     -6.137963
   5.07548     -6.132521
   5.12542     -6.126772
   5.17536     -6.121217
   5.22530     -6.116407
   5.27525     -6.112747
   5.32519     -6.110270
   5.37513     -6.109406
 
# Band-Index:   20
   5.37513     -6.109406
   5.32519     -6.109455
   5.27525     -6.109540
   5.22530     -6.109568
   5.17536     -6.109490
   5.12542     -6.109290
   5.07548     -6.108910
   5.02554     -6.108152
   4.97559     -6.107114
   4.92565     -6.105510
   4.87571     -6.103210
   4.82577     -6.100424
   4.77582     -6.097025
   4.72588     -6.093032
   4.67594     -6.088594
   4.62600     -6.084112
   4.57606     -6.080064
   4.52611     -6.076696
   4.47617     -6.074661
   4.42623     -6.073923
   4.42623     -6.073923
   4.39832     -6.074212
   4.37041     -6.074962
   4.34250     -6.076419
   4.31458     -6.078349
   4.28667     -6.080679
   4.25876     -6.083293
   4.23085     -6.086185
   4.20294     -6.089381
   4.17503     -6.092640
   4.14712     -6.095895
   4.11920     -6.099101
   4.09129     -6.102138
   4.06338     -6.104949
   4.03547     -6.107269
   4.00756     -6.109111
   3.97965     -6.110442
   3.95174     -6.111222
   3.92382     -6.111468
   3.89591     -6.111508
   3.89591     -6.111508
   3.83872     -6.111344
   3.78153     -6.112030
   3.72433     -6.113749
   3.66714     -6.115298
   3.60995     -6.113747
   3.55275     -6.103409
   3.49556     -6.083797
   3.43837     -6.084728
   3.38117     -6.094159
   3.32398     -6.101047
   3.26679     -6.105210
   3.20959     -6.107500
   3.15240     -6.108804
   3.09521     -6.109421
   3.03801     -6.109603
   2.98082     -6.109715
   2.92362     -6.109634
   2.86643     -6.109464
   2.80924     -6.109406
   2.80924     -6.109406
   2.75990     -6.109445
   2.71056     -6.109606
   2.66122     -6.109580
   2.61189     -6.109559
   2.56255     -6.109350
   2.51321     -6.108957
   2.46387     -6.108280
   2.41453     -6.107131
   2.36519     -6.105495
   2.31586     -6.103266
   2.26652     -6.100450
   2.21718     -6.096988
   2.16784     -6.092984
   2.11850     -6.088656
   2.06916     -6.084221
   2.01983     -6.080105
   1.97049     -6.076618
   1.92115     -6.074392
   1.87181     -6.073638
   1.87181     -6.073638
   1.84253     -6.073976
   1.81325     -6.075137
   1.78397     -6.076793
   1.75468     -6.079016
   1.72540     -6.081723
   1.69612     -6.084617
   1.66684     -6.087854
   1.63756     -6.091101
   1.60827     -6.094429
   1.57899     -6.097635
   1.54971     -6.100652
   1.52043     -6.103519
   1.49114     -6.106013
   1.46186     -6.108062
   1.43258     -6.109622
   1.40330     -6.110650
   1.37402     -6.111175
   1.34473     -6.111395
   1.31545     -6.111504
   1.31545     -6.111504
   1.25963     -6.112171
   1.20381     -6.113889
   1.14798     -6.116447
   1.09216     -6.118153
   1.03634     -6.114786
   0.98052     -6.096457
   0.92469     -6.075225
   0.86887     -6.080585
   0.81305     -6.086028
   0.75723     -6.077521
   0.70140     -6.059836
   0.64558     -6.046959
   0.58976     -6.042051
   0.53393     -6.043426
   0.47811     -6.048702
   0.42229     -6.055557
   0.36647     -6.062435
   0.31064     -6.067640
   0.25482     -6.069661
   0.25482     -6.069661
   0.24141     -6.071420
   0.22800     -6.076748
   0.21459     -6.085139
   0.20117     -6.096305
   0.18776     -6.109567
   0.17435     -6.109592
   0.16094     -6.109598
   0.14753     -6.109655
   0.13412     -6.109606
   0.12070     -6.109613
   0.10729     -6.109618
   0.09388     -6.109622
   0.08047     -6.109623
   0.06706     -6.109623
   0.05365     -6.109512
   0.04023     -6.109456
   0.02682     -6.109457
   0.01341     -6.109412
   0.00000     -6.109406
 
# Band-Index:   21
   0.00000     -4.370777
   0.01341     -4.375619
   0.02682     -4.389731
   0.04023     -4.412074
   0.05365     -4.441272
   0.06706     -4.475822
   0.08047     -4.514001
   0.09388     -4.554575
   0.10729     -4.596356
   0.12070     -4.638309
   0.13412     -4.679519
   0.14753     -4.719181
   0.16094     -4.756487
   0.17435     -4.790706
   0.18776     -4.821212
   0.20117     -4.847225
   0.21459     -4.868306
   0.22800     -4.883711
   0.24141     -4.893121
   0.25482     -4.896294
   0.25482     -4.896294
   0.31064     -4.894883
   0.36647     -4.891716
   0.42229     -4.890171
   0.47811     -4.896907
   0.53393     -4.922868
   0.58976     -4.983744
   0.64558     -5.095163
   0.70140     -5.258228
   0.75723     -5.452802
   0.81305     -5.652108
   0.86887     -5.831702
   0.92469     -5.959441
   0.98052     -5.987366
   1.03634     -5.951154
   1.09216     -5.894006
   1.14798     -5.828831
   1.20381     -5.767262
   1.25963     -5.722132
   1.31545     -5.702263
   1.31545     -5.702263
   1.34473     -5.702361
   1.37402     -5.708361
   1.40330     -5.718510
   1.43258     -5.731223
   1.46186     -5.745441
   1.49114     -5.760265
   1.52043     -5.774920
   1.54971     -5.789081
   1.57899     -5.802386
   1.60827     -5.814598
   1.63756     -5.825697
   1.66684     -5.835580
   1.69612     -5.844042
   1.72540     -5.851275
   1.75468     -5.857181
   1.78397     -5.861811
   1.81325     -5.865140
   1.84253     -5.866996
   1.87181     -5.867642
   1.87181     -5.867642
   1.92115     -5.884860
   1.97049     -5.925755
   2.01983     -5.971516
   2.06916     -6.006670
   2.11850     -6.012592
   2.16784     -5.958034
   2.21718     -5.829095
   2.26652     -5.651876
   2.31586     -5.450268
   2.36519     -5.239569
   2.41453     -5.033682
   2.46387     -4.847405
   2.51321     -4.692722
   2.56255     -4.574722
   2.61189     -4.490581
   2.66122     -4.433519
   2.71056     -4.397296
   2.75990     -4.377178
   2.80924     -4.370777
   2.80924     -4.370777
   2.86643     -4.378830
   2.92362     -4.404873
   2.98082     -4.454683
   3.03801     -4.537281
   3.09521     -4.662035
   3.15240     -4.832113
   3.20959     -5.039269
   3.26679     -5.266277
   3.32398     -5.493968
   3.38117     -5.705420
   3.43837     -5.880709
   3.49556     -5.980728
   3.55275     -5.979058
   3.60995     -5.933416
   3.66714     -5.871916
   3.72433     -5.806149
   3.78153     -5.748476
   3.83872     -5.711766
   3.89591     -5.701598
   3.89591     -5.701598
   3.92382     -5.704801
   3.95174     -5.711849
   3.97965     -5.721477
   4.00756     -5.732744
   4.03547     -5.745073
   4.06338     -5.757948
   4.09129     -5.770805
   4.11920     -5.783594
   4.14712     -5.795938
   4.17503     -5.807652
   4.20294     -5.818584
   4.23085     -5.828608
   4.25876     -5.837618
   4.28667     -5.845434
   4.31458     -5.851906
   4.34250     -5.857029
   4.37041     -5.860709
   4.39832     -5.863075
   4.42623     -5.863849
   4.42623     -5.863849
   4.47617     -5.878643
   4.52611     -5.914006
   4.57606     -5.953658
   4.62600     -5.982766
   4.67594     -5.985503
   4.72588     -5.936564
   4.77582     -5.820306
   4.82577     -5.655554
   4.87571     -5.465444
   4.92565     -5.265035
   4.97559     -5.067332
   5.02554     -4.885302
   5.07548     -4.729582
   5.12542     -4.605610
   5.17536     -4.512791
   5.22530     -4.446973
   5.27525     -4.403527
   5.32519     -4.378803
   5.37513     -4.370777
 
# Band-Index:   22
   5.37513     -3.381249
   5.32519     -3.379476
   5.27525     -3.376708
   5.22530     -3.388256
   5.17536     -3.470552
   5.12542     -3.659411
   5.07548     -3.892550
   5.02554     -4.135593
   4.97559     -4.373931
   4.92565     -4.597530
   4.87571     -4.795979
   4.82577     -4.960212
   4.77582     -5.087110
   4.72588     -5.181374
   4.67594     -5.252963
   4.62600     -5.310999
   4.57606     -5.360484
   4.52611     -5.402091
   4.47617     -5.432209
   4.42623     -5.443888
   4.42623     -5.443888
   4.39832     -5.442647
   4.37041     -5.438810
   4.34250     -5.432485
   4.31458     -5.423987
   4.28667     -5.413337
   4.25876     -5.401007
   4.23085     -5.387475
   4.20294     -5.373250
   4.17503     -5.359182
   4.14712     -5.346394
   4.11920     -5.336415
   4.09129     -5.331270
   4.06338     -5.333487
   4.03547     -5.344797
   4.00756     -5.365009
   3.97965     -5.390320
   3.95174     -5.414968
   3.92382     -5.433921
   3.89591     -5.443980
   3.89591     -5.443980
   3.83872     -5.429406
   3.78153     -5.366141
   3.72433     -5.261120
   3.66714     -5.125962
   3.60995     -5.016014
   3.55275     -4.972779
   3.49556     -4.916309
   3.43837     -4.846349
   3.38117     -4.755600
   3.32398     -4.632993
   3.26679     -4.472807
   3.20959     -4.277394
   3.15240     -4.053982
   3.09521     -3.813501
   3.03801     -3.582801
   2.98082     -3.433435
   2.92362     -3.390266
   2.86643     -3.382346
   2.80924     -3.381249
   2.80924     -3.381249
   2.75990     -3.381363
   2.71056     -3.384638
   2.66122     -3.405358
   2.61189     -3.487532
   2.56255     -3.663446
   2.51321     -3.883886
   2.46387     -4.112269
   2.41453     -4.335275
   2.36519     -4.544207
   2.31586     -4.730137
   2.26652     -4.885898
   2.21718     -5.009949
   2.16784     -5.108346
   2.11850     -5.191105
   2.06916     -5.266217
   2.01983     -5.337109
   1.97049     -5.401730
   1.92115     -5.451418
   1.87181     -5.471240
   1.87181     -5.471240
   1.84253     -5.469756
   1.81325     -5.465394
   1.78397     -5.458104
   1.75468     -5.448273
   1.72540     -5.436058
   1.69612     -5.421940
   1.66684     -5.406511
   1.63756     -5.390563
   1.60827     -5.375309
   1.57899     -5.362156
   1.54971     -5.353213
   1.52043     -5.350924
   1.49114     -5.357454
   1.46186     -5.373133
   1.43258     -5.394988
   1.40330     -5.417631
   1.37402     -5.435434
   1.34473     -5.444377
   1.31545     -5.442044
   1.31545     -5.442044
   1.25963     -5.403653
   1.20381     -5.324271
   1.14798     -5.213245
   1.09216     -5.090742
   1.03634     -5.028306
   0.98052     -4.971993
   0.92469     -4.898816
   0.86887     -4.810717
   0.81305     -4.708718
   0.75723     -4.589764
   0.70140     -4.446891
   0.64558     -4.269649
   0.58976     -4.049747
   0.53393     -3.793031
   0.47811     -3.518608
   0.42229     -3.251092
   0.36647     -3.018934
   0.31064     -2.854774
   0.25482     -2.793425
   0.25482     -2.793425
   0.24141     -2.793416
   0.22800     -2.793399
   0.21459     -2.793355
   0.20117     -2.793099
   0.18776     -2.792978
   0.17435     -2.819452
   0.16094     -2.872862
   0.14753     -2.928800
   0.13412     -2.985969
   0.12070     -3.043393
   0.10729     -3.100049
   0.09388     -3.154909
   0.08047     -3.206869
   0.06706     -3.254706
   0.05365     -3.297015
   0.04023     -3.332262
   0.02682     -3.358999
   0.01341     -3.375728
   0.00000     -3.381249
 
# Band-Index:   23
   0.00000     -2.791763
   0.01341     -2.791775
   0.02682     -2.791884
   0.04023     -2.791926
   0.05365     -2.792041
   0.06706     -2.792175
   0.08047     -2.792259
   0.09388     -2.792352
   0.10729     -2.792451
   0.12070     -2.792554
   0.13412     -2.792657
   0.14753     -2.792804
   0.16094     -2.792809
   0.17435     -2.792901
   0.18776     -2.792978
   0.20117     -2.793099
   0.21459     -2.793355
   0.22800     -2.793399
   0.24141     -2.793416
   0.25482     -2.793425
   0.25482     -2.793425
   0.31064     -2.805982
   0.36647     -2.844422
   0.42229     -2.910101
   0.47811     -3.009382
   0.53393     -3.232585
   0.58976     -3.477737
   0.64558     -3.708379
   0.70140     -3.924102
   0.75723     -4.125147
   0.81305     -4.308102
   0.86887     -4.471898
   0.92469     -4.622598
   0.98052     -4.770628
   1.03634     -4.918746
   1.09216     -5.038584
   1.14798     -5.070352
   1.20381     -5.082042
   1.25963     -5.089830
   1.31545     -5.092847
   1.31545     -5.092847
   1.34473     -5.089555
   1.37402     -5.081459
   1.40330     -5.068230
   1.43258     -5.049344
   1.46186     -5.022502
   1.49114     -4.984907
   1.52043     -4.938490
   1.54971     -4.888826
   1.57899     -4.840679
   1.60827     -4.797704
   1.63756     -4.763375
   1.66684     -4.739504
   1.69612     -4.725454
   1.72540     -4.718967
   1.75468     -4.717216
   1.78397     -4.717918
   1.81325     -4.719418
   1.84253     -4.720602
   1.87181     -4.721103
   1.87181     -4.721103
   1.92115     -4.696716
   1.97049     -4.625871
   2.01983     -4.516217
   2.06916     -4.385175
   2.11850     -4.282471
   2.16784     -4.227179
   2.21718     -4.164903
   2.26652     -4.081113
   2.31586     -3.977554
   2.36519     -3.857052
   2.41453     -3.720577
   2.46387     -3.572049
   2.51321     -3.428679
   2.56255     -3.318431
   2.61189     -3.224921
   2.66122     -3.088172
   2.71056     -2.938892
   2.75990     -2.830758
   2.80924     -2.791763
   2.80924     -2.791763
   2.86643     -2.844221
   2.92362     -2.983605
   2.98082     -3.155149
   3.03801     -3.266974
   3.09521     -3.349770
   3.15240     -3.505202
   3.20959     -3.722065
   3.26679     -3.951035
   3.32398     -4.168186
   3.38117     -4.362158
   3.43837     -4.529089
   3.49556     -4.676329
   3.55275     -4.821490
   3.60995     -4.974237
   3.66714     -5.045424
   3.72433     -5.064342
   3.78153     -5.077655
   3.83872     -5.086707
   3.89591     -5.091446
   3.89591     -5.091446
   3.92382     -5.091197
   3.95174     -5.086792
   3.97965     -5.075207
   4.00756     -5.052633
   4.03547     -5.016303
   4.06338     -4.988833
   4.09129     -4.973714
   4.11920     -4.961271
   4.14712     -4.951959
   4.17503     -4.946103
   4.20294     -4.943467
   4.23085     -4.943459
   4.25876     -4.945255
   4.28667     -4.948088
   4.31458     -4.951251
   4.34250     -4.954197
   4.37041     -4.956568
   4.39832     -4.958128
   4.42623     -4.958626
   4.42623     -4.958626
   4.47617     -4.928243
   4.52611     -4.841786
   4.57606     -4.710973
   4.62600     -4.549654
   4.67594     -4.373941
   4.72588     -4.207253
   4.77582     -4.072160
   4.82577     -3.954688
   4.87571     -3.833568
   4.92565     -3.701010
   4.97559     -3.554715
   5.02554     -3.399393
   5.07548     -3.274901
   5.12542     -3.233074
   5.17536     -3.197179
   5.22530     -3.084299
   5.27525     -2.938387
   5.32519     -2.830664
   5.37513     -2.791763
 
# Band-Index:   24
   5.37513     -2.791763
   5.32519     -2.801436
   5.27525     -2.830159
   5.22530     -2.876317
   5.17536     -2.937956
   5.12542     -3.012101
   5.07548     -3.096213
   5.02554     -3.186983
   4.97559     -3.281386
   4.92565     -3.376757
   4.87571     -3.470317
   4.82577     -3.578483
   4.77582     -3.777827
   4.72588     -3.929931
   4.67594     -4.011093
   4.62600     -4.038030
   4.57606     -4.033186
   4.52611     -4.013239
   4.47617     -3.993116
   4.42623     -3.984731
   4.42623     -3.984731
   4.39832     -3.988502
   4.37041     -4.005557
   4.34250     -4.051348
   4.31458     -4.119228
   4.28667     -4.201717
   4.25876     -4.294571
   4.23085     -4.394421
   4.20294     -4.498004
   4.17503     -4.602178
   4.14712     -4.703544
   4.11920     -4.798917
   4.09129     -4.884552
   4.06338     -4.956182
   4.03547     -4.999422
   4.00756     -5.015687
   3.97965     -5.029110
   3.95174     -5.040443
   3.92382     -5.049093
   3.89591     -5.053821
   3.89591     -5.053821
   3.83872     -5.043437
   3.78153     -4.999724
   3.72433     -4.921508
   3.66714     -4.812150
   3.60995     -4.677724
   3.55275     -4.522790
   3.49556     -4.348328
   3.43837     -4.157080
   3.38117     -3.957163
   3.32398     -3.759810
   3.26679     -3.575650
   3.20959     -3.412910
   3.15240     -3.273688
   3.09521     -3.143357
   3.03801     -3.014529
   2.98082     -2.914015
   2.92362     -2.845203
   2.86643     -2.805004
   2.80924     -2.791763
   2.80924     -2.791763
   2.75990     -2.801442
   2.71056     -2.830047
   2.66122     -2.875936
   2.61189     -2.937224
   2.56255     -3.010835
   2.51321     -3.094274
   2.46387     -3.184332
   2.41453     -3.277900
   2.36519     -3.372309
   2.31586     -3.464949
   2.26652     -3.553585
   2.21718     -3.728480
   2.16784     -3.927830
   2.11850     -4.090964
   2.06916     -4.153997
   2.01983     -4.132688
   1.97049     -4.078736
   1.92115     -4.019001
   1.87181     -3.989358
   1.87181     -3.989358
   1.84253     -3.996900
   1.81325     -4.020080
   1.78397     -4.061645
   1.75468     -4.127078
   1.72540     -4.211614
   1.69612     -4.307932
   1.66684     -4.411286
   1.63756     -4.517234
   1.60827     -4.621940
   1.57899     -4.721204
   1.54971     -4.810672
   1.52043     -4.886109
   1.49114     -4.945026
   1.46186     -4.989088
   1.43258     -5.020709
   1.40330     -5.040896
   1.37402     -5.051264
   1.34473     -5.054313
   1.31545     -5.051162
   1.31545     -5.051162
   1.25963     -5.024972
   1.20381     -4.964546
   1.14798     -4.868702
   1.09216     -4.742214
   1.03634     -4.590911
   0.98052     -4.420391
   0.92469     -4.236430
   0.86887     -4.045283
   0.81305     -3.857147
   0.75723     -3.700697
   0.70140     -3.585036
   0.64558     -3.448397
   0.58976     -3.286964
   0.53393     -3.130599
   0.47811     -2.976207
   0.42229     -2.765396
   0.36647     -2.666321
   0.31064     -2.639553
   0.25482     -2.635288
   0.25482     -2.635288
   0.24141     -2.641400
   0.22800     -2.659548
   0.21459     -2.687994
   0.20117     -2.725272
   0.18776     -2.769555
   0.17435     -2.792901
   0.16094     -2.792809
   0.14753     -2.792804
   0.13412     -2.792657
   0.12070     -2.792554
   0.10729     -2.792451
   0.09388     -2.792352
   0.08047     -2.792259
   0.06706     -2.792175
   0.05365     -2.792041
   0.04023     -2.791926
   0.02682     -2.791884
   0.01341     -2.791775
   0.00000     -2.791763
 
# Band-Index:   25
   0.00000     -2.093132
   0.01341     -2.093088
   0.02682     -2.092969
   0.04023     -2.092742
   0.05365     -2.092461
   0.06706     -2.092120
   0.08047     -2.091672
   0.09388     -2.091172
   0.10729     -2.090632
   0.12070     -2.090066
   0.13412     -2.089491
   0.14753     -2.088949
   0.16094     -2.088241
   0.17435     -2.087728
   0.18776     -2.087247
   0.20117     -2.086904
   0.21459     -2.086636
   0.22800     -2.086401
   0.24141     -2.086256
   0.25482     -2.086207
   0.25482     -2.086207
   0.31064     -2.188271
   0.36647     -2.386761
   0.42229     -2.565886
   0.47811     -2.678582
   0.53393     -2.840147
   0.58976     -3.035590
   0.64558     -3.225404
   0.70140     -3.408543
   0.75723     -3.567587
   0.81305     -3.645614
   0.86887     -3.730177
   0.92469     -3.899794
   0.98052     -4.039375
   1.03634     -4.148536
   1.09216     -4.230124
   1.14798     -4.282783
   1.20381     -4.300361
   1.25963     -4.277436
   1.31545     -4.215224
   1.31545     -4.215224
   1.34473     -4.170051
   1.37402     -4.118870
   1.40330     -4.063948
   1.43258     -4.102204
   1.46186     -4.144733
   1.49114     -4.182380
   1.52043     -4.213727
   1.54971     -4.237052
   1.57899     -4.250128
   1.60827     -4.250388
   1.63756     -4.236203
   1.66684     -4.207810
   1.69612     -4.168183
   1.72540     -4.122127
   1.75468     -4.073954
   1.78397     -4.025270
   1.81325     -3.978862
   1.84253     -3.946016
   1.87181     -3.934473
   1.87181     -3.934473
   1.92115     -3.927960
   1.97049     -3.908627
   2.01983     -3.876674
   2.06916     -3.832611
   2.11850     -3.777191
   2.16784     -3.711331
   2.21718     -3.636349
   2.26652     -3.522835
   2.31586     -3.328504
   2.36519     -3.167613
   2.41453     -3.064290
   2.46387     -3.006250
   2.51321     -2.944295
   2.56255     -2.829528
   2.61189     -2.655923
   2.66122     -2.459354
   2.71056     -2.277733
   2.75990     -2.144085
   2.80924     -2.093132
   2.80924     -2.093132
   2.86643     -2.159445
   2.92362     -2.318929
   2.98082     -2.523543
   3.03801     -2.736652
   3.09521     -2.922358
   3.15240     -3.073390
   3.20959     -3.228800
   3.26679     -3.391738
   3.32398     -3.557345
   3.38117     -3.725457
   3.43837     -3.887599
   3.49556     -4.025087
   3.55275     -4.117649
   3.60995     -4.159979
   3.66714     -4.164166
   3.72433     -4.141550
   3.78153     -4.093732
   3.83872     -4.107052
   3.89591     -4.202092
   3.89591     -4.202092
   3.92382     -4.240966
   3.95174     -4.274045
   3.97965     -4.300421
   4.00756     -4.319279
   4.03547     -4.329773
   4.06338     -4.330832
   4.09129     -4.321458
   4.11920     -4.301232
   4.14712     -4.270598
   4.17503     -4.231265
   4.20294     -4.186097
   4.23085     -4.138976
   4.25876     -4.094039
   4.28667     -4.054947
   4.31458     -4.023883
   4.34250     -4.000458
   4.37041     -3.979502
   4.39832     -3.956115
   4.42623     -3.946230
   4.42623     -3.946230
   4.47617     -3.939684
   4.52611     -3.919860
   4.57606     -3.887307
   4.62600     -3.842585
   4.67594     -3.786403
   4.72588     -3.719687
   4.77582     -3.643730
   4.82577     -3.560044
   4.87571     -3.368616
   4.92565     -3.189787
   4.97559     -3.119694
   5.02554     -3.106747
   5.07548     -3.052294
   5.12542     -2.890342
   5.17536     -2.679859
   5.22530     -2.467150
   5.27525     -2.279652
   5.32519     -2.144352
   5.37513     -2.093132
 
# Band-Index:   26
   5.37513     -2.093132
   5.32519     -2.116211
   5.27525     -2.175954
   5.22530     -2.257554
   5.17536     -2.352293
   5.12542     -2.454902
   5.07548     -2.562403
   5.02554     -2.671677
   4.97559     -2.843041
   4.92565     -2.971890
   4.87571     -2.996240
   4.82577     -3.083417
   4.77582     -3.171014
   4.72588     -3.249536
   4.67594     -3.318003
   4.62600     -3.375184
   4.57606     -3.420484
   4.52611     -3.453235
   4.47617     -3.473119
   4.42623     -3.479763
   4.42623     -3.479763
   4.39832     -3.486215
   4.37041     -3.503478
   4.34250     -3.527791
   4.31458     -3.553199
   4.28667     -3.574804
   4.25876     -3.589306
   4.23085     -3.595823
   4.20294     -3.595115
   4.17503     -3.588967
   4.14712     -3.580005
   4.11920     -3.572060
   4.09129     -3.571304
   4.06338     -3.586644
   4.03547     -3.623039
   4.00756     -3.675133
   3.97965     -3.734754
   3.95174     -3.796239
   3.92382     -3.856566
   3.89591     -3.913980
   3.89591     -3.913980
   3.83872     -4.016437
   3.78153     -3.995773
   3.72433     -3.879406
   3.66714     -3.764755
   3.60995     -3.654149
   3.55275     -3.543010
   3.49556     -3.427702
   3.43837     -3.310360
   3.38117     -3.198653
   3.32398     -3.105113
   3.26679     -3.040263
   3.20959     -2.993184
   3.15240     -2.919919
   3.09521     -2.774880
   3.03801     -2.584692
   2.98082     -2.391380
   2.92362     -2.229579
   2.86643     -2.126869
   2.80924     -2.093132
   2.80924     -2.093132
   2.75990     -2.116473
   2.71056     -2.176838
   2.66122     -2.259172
   2.61189     -2.354843
   2.56255     -2.458555
   2.51321     -2.567252
   2.46387     -2.678095
   2.41453     -2.788309
   2.36519     -2.896097
   2.31586     -2.999350
   2.26652     -3.096431
   2.21718     -3.185865
   2.16784     -3.266085
   2.11850     -3.336030
   2.06916     -3.394566
   2.01983     -3.482650
   1.97049     -3.574710
   1.92115     -3.653331
   1.87181     -3.688682
   1.87181     -3.688682
   1.84253     -3.688348
   1.81325     -3.687875
   1.78397     -3.687853
   1.75468     -3.689299
   1.72540     -3.692908
   1.69612     -3.699470
   1.66684     -3.709955
   1.63756     -3.725366
   1.60827     -3.746587
   1.57899     -3.774374
   1.54971     -3.809152
   1.52043     -3.850845
   1.49114     -3.898736
   1.46186     -3.951396
   1.43258     -4.007167
   1.40330     -4.055550
   1.37402     -4.005755
   1.34473     -3.952683
   1.31545     -3.896587
   1.31545     -3.896587
   1.25963     -3.780595
   1.20381     -3.652568
   1.14798     -3.522784
   1.09216     -3.504916
   1.03634     -3.563998
   0.98052     -3.614098
   0.92469     -3.647103
   0.86887     -3.660025
   0.81305     -3.535995
   0.75723     -3.333437
   0.70140     -3.136601
   0.64558     -2.960433
   0.58976     -2.815112
   0.53393     -2.697050
   0.47811     -2.562031
   0.42229     -2.379648
   0.36647     -2.219825
   0.31064     -2.119053
   0.25482     -2.086207
   0.25482     -2.086207
   0.24141     -2.086256
   0.22800     -2.086401
   0.21459     -2.086636
   0.20117     -2.086904
   0.18776     -2.087247
   0.17435     -2.087728
   0.16094     -2.088241
   0.14753     -2.088949
   0.13412     -2.089491
   0.12070     -2.090066
   0.10729     -2.090632
   0.09388     -2.091172
   0.08047     -2.091672
   0.06706     -2.092120
   0.05365     -2.092461
   0.04023     -2.092742
   0.02682     -2.092969
   0.01341     -2.093088
   0.00000     -2.093132
 
# Band-Index:   27
   0.00000     -1.809375
   0.01341     -1.809418
   0.02682     -1.809565
   0.04023     -1.809762
   0.05365     -1.810114
   0.06706     -1.810539
   0.08047     -1.810932
   0.09388     -1.811371
   0.10729     -1.811843
   0.12070     -1.812337
   0.13412     -1.812839
   0.14753     -1.813354
   0.16094     -1.813692
   0.17435     -1.814144
   0.18776     -1.814550
   0.20117     -1.814964
   0.21459     -1.815280
   0.22800     -1.815489
   0.24141     -1.815610
   0.25482     -1.815653
   0.25482     -1.815653
   0.31064     -1.831024
   0.36647     -1.866365
   0.42229     -1.906941
   0.47811     -1.949535
   0.53393     -1.994179
   0.58976     -2.043722
   0.64558     -2.123359
   0.70140     -2.232532
   0.75723     -2.357965
   0.81305     -2.502998
   0.86887     -2.663896
   0.92469     -2.832581
   0.98052     -3.003429
   1.03634     -3.171399
   1.09216     -3.327419
   1.14798     -3.388647
   1.20381     -3.332027
   1.25963     -3.312440
   1.31545     -3.340574
   1.31545     -3.340574
   1.34473     -3.347579
   1.37402     -3.345188
   1.40330     -3.336179
   1.43258     -3.327214
   1.46186     -3.325696
   1.49114     -3.333963
   1.52043     -3.349578
   1.54971     -3.368960
   1.57899     -3.389745
   1.60827     -3.410160
   1.63756     -3.429169
   1.66684     -3.446394
   1.69612     -3.461267
   1.72540     -3.473835
   1.75468     -3.483966
   1.78397     -3.491788
   1.81325     -3.497310
   1.84253     -3.500433
   1.87181     -3.501433
   1.87181     -3.501433
   1.92115     -3.494731
   1.97049     -3.474486
   2.01983     -3.440954
   2.06916     -3.389060
   2.11850     -3.297483
   2.16784     -3.208287
   2.21718     -3.120979
   2.26652     -3.035467
   2.31586     -2.951923
   2.36519     -2.862110
   2.41453     -2.742596
   2.46387     -2.589284
   2.51321     -2.421738
   2.56255     -2.255110
   2.61189     -2.101385
   2.66122     -1.971489
   2.71056     -1.876991
   2.75990     -1.824276
   2.80924     -1.809375
   2.80924     -1.809375
   2.86643     -1.826590
   2.92362     -1.866769
   2.98082     -1.915900
   3.03801     -1.973279
   3.09521     -2.042648
   3.15240     -2.127474
   3.20959     -2.234744
   3.26679     -2.372394
   3.32398     -2.520501
   3.38117     -2.665621
   3.43837     -2.812385
   3.49556     -2.959595
   3.55275     -3.099469
   3.60995     -3.218836
   3.66714     -3.301778
   3.72433     -3.339936
   3.78153     -3.344550
   3.83872     -3.340660
   3.89591     -3.345123
   3.89591     -3.345123
   3.92382     -3.350537
   3.95174     -3.358363
   3.97965     -3.368000
   4.00756     -3.377236
   4.03547     -3.380767
   4.06338     -3.370629
   4.09129     -3.342079
   4.11920     -3.301380
   4.14712     -3.258551
   4.17503     -3.220224
   4.20294     -3.189543
   4.23085     -3.167367
   4.25876     -3.153419
   4.28667     -3.146643
   4.31458     -3.145723
   4.34250     -3.148909
   4.37041     -3.154278
   4.39832     -3.159248
   4.42623     -3.161169
   4.42623     -3.161169
   4.47617     -3.148163
   4.52611     -3.114042
   4.57606     -3.069005
   4.62600     -3.025582
   4.67594     -2.994420
   4.72588     -2.980488
   4.77582     -2.981249
   4.82577     -2.989684
   4.87571     -2.987941
   4.92565     -2.886451
   4.97559     -2.780343
   5.02554     -2.653792
   5.07548     -2.460333
   5.12542     -2.276865
   5.17536     -2.112129
   5.22530     -1.975453
   5.27525     -1.877664
   5.32519     -1.824110
   5.37513     -1.809375
 
# Band-Index:   28
   5.37513     -1.809375
   5.32519     -1.797414
   5.27525     -1.770931
   5.22530     -1.742918
   5.17536     -1.720390
   5.12542     -1.705446
   5.07548     -1.698838
   5.02554     -1.700242
   4.97559     -1.887067
   4.92565     -2.080009
   4.87571     -2.239230
   4.82577     -2.365287
   4.77582     -2.461576
   4.72588     -2.530164
   4.67594     -2.571907
   4.62600     -2.588904
   4.57606     -2.588426
   4.52611     -2.579812
   4.47617     -2.571327
   4.42623     -2.567922
   4.42623     -2.567922
   4.39832     -2.567469
   4.37041     -2.566602
   4.34250     -2.567429
   4.31458     -2.572765
   4.28667     -2.585656
   4.25876     -2.608833
   4.23085     -2.643299
   4.20294     -2.687638
   4.17503     -2.738756
   4.14712     -2.793154
   4.11920     -2.848349
   4.09129     -2.902952
   4.06338     -2.956080
   4.03547     -3.006528
   4.00756     -3.052334
   3.97965     -3.090822
   3.95174     -3.119459
   3.92382     -3.137113
   3.89591     -3.144250
   3.89591     -3.144250
   3.83872     -3.127261
   3.78153     -3.063576
   3.72433     -2.958588
   3.66714     -2.829898
   3.60995     -2.698199
   3.55275     -2.583888
   3.49556     -2.498275
   3.43837     -2.439770
   3.38117     -2.393830
   3.32398     -2.335456
   3.26679     -2.247825
   3.20959     -2.129599
   3.15240     -2.004639
   3.09521     -1.906593
   3.03801     -1.838911
   2.98082     -1.798826
   2.92362     -1.785540
   2.86643     -1.796392
   2.80924     -1.809375
   2.80924     -1.809375
   2.75990     -1.797212
   2.71056     -1.770203
   2.66122     -1.741541
   2.61189     -1.718051
   2.56255     -1.701979
   2.51321     -1.693779
   2.46387     -1.693217
   2.41453     -1.889868
   2.36519     -2.059792
   2.31586     -2.171632
   2.26652     -2.228568
   2.21718     -2.247054
   2.16784     -2.244653
   2.11850     -2.233178
   2.06916     -2.219429
   2.01983     -2.206803
   1.97049     -2.197402
   1.92115     -2.191490
   1.87181     -2.189467
   1.87181     -2.189467
   1.84253     -2.193261
   1.81325     -2.205769
   1.78397     -2.229454
   1.75468     -2.268097
   1.72540     -2.323652
   1.69612     -2.394986
   1.66684     -2.478740
   1.63756     -2.570323
   1.60827     -2.665721
   1.57899     -2.760957
   1.54971     -2.852411
   1.52043     -2.936175
   1.49114     -3.008039
   1.46186     -3.063182
   1.43258     -3.098640
   1.40330     -3.117011
   1.37402     -3.126920
   1.34473     -3.136949
   1.31545     -3.151331
   1.31545     -3.151331
   1.25963     -3.180574
   1.20381     -3.143649
   1.14798     -3.043562
   1.09216     -2.928014
   1.03634     -2.815501
   0.98052     -2.712049
   0.92469     -2.613793
   0.86887     -2.513026
   0.81305     -2.403904
   0.75723     -2.287039
   0.70140     -2.178203
   0.64558     -2.096591
   0.58976     -2.022755
   0.53393     -1.944185
   0.47811     -1.881623
   0.42229     -1.837544
   0.36647     -1.812694
   0.31064     -1.807483
   0.25482     -1.815653
   0.25482     -1.815653
   0.24141     -1.815610
   0.22800     -1.815489
   0.21459     -1.815280
   0.20117     -1.814964
   0.18776     -1.814550
   0.17435     -1.814144
   0.16094     -1.813692
   0.14753     -1.813354
   0.13412     -1.812839
   0.12070     -1.812337
   0.10729     -1.811843
   0.09388     -1.811371
   0.08047     -1.810932
   0.06706     -1.810539
   0.05365     -1.810114
   0.04023     -1.809762
   0.02682     -1.809565
   0.01341     -1.809418
   0.00000     -1.809375
 
# Band-Index:   29
   0.00000     -0.875719
   0.01341     -0.880811
   0.02682     -0.895726
   0.04023     -0.919674
   0.05365     -0.951772
   0.06706     -0.990702
   0.08047     -1.035170
   0.09388     -1.084021
   0.10729     -1.136108
   0.12070     -1.190350
   0.13412     -1.245707
   0.14753     -1.301185
   0.16094     -1.355651
   0.17435     -1.407885
   0.18776     -1.456560
   0.20117     -1.500138
   0.21459     -1.536925
   0.22800     -1.564982
   0.24141     -1.582292
   0.25482     -1.588329
   0.25482     -1.588329
   0.31064     -1.517770
   0.36647     -1.379382
   0.42229     -1.241980
   0.47811     -1.124091
   0.53393     -1.197418
   0.58976     -1.442695
   0.64558     -1.654380
   0.70140     -1.814460
   0.75723     -1.917298
   0.81305     -1.982591
   0.86887     -2.034631
   0.92469     -2.089985
   0.98052     -2.168640
   1.03634     -2.277681
   1.09216     -2.392435
   1.14798     -2.497754
   1.20381     -2.590277
   1.25963     -2.665042
   1.31545     -2.709646
   1.31545     -2.709646
   1.34473     -2.715224
   1.37402     -2.706102
   1.40330     -2.682388
   1.43258     -2.645081
   1.46186     -2.595686
   1.49114     -2.535508
   1.52043     -2.465562
   1.54971     -2.387575
   1.57899     -2.304012
   1.60827     -2.219087
   1.63756     -2.139591
   1.66684     -2.074710
   1.69612     -2.028453
   1.72540     -1.994485
   1.75468     -1.964605
   1.78397     -1.936075
   1.81325     -1.911015
   1.84253     -1.893313
   1.87181     -1.887075
   1.87181     -1.887075
   1.92115     -1.883567
   1.97049     -1.873447
   2.01983     -1.857720
   2.06916     -1.837743
   2.11850     -1.815212
   2.16784     -1.791520
   2.21718     -1.768101
   2.26652     -1.746179
   2.31586     -1.726680
   2.36519     -1.710750
   2.41453     -1.699204
   2.46387     -1.673477
   2.51321     -1.428402
   2.56255     -1.171948
   2.61189     -0.927592
   2.66122     -0.843898
   2.71056     -0.855850
   2.75990     -0.869901
   2.80924     -0.875719
   2.80924     -0.875719
   2.86643     -0.867196
   2.92362     -0.847411
   2.98082     -0.845614
   3.03801     -1.069117
   3.09521     -1.346584
   3.15240     -1.597308
   3.20959     -1.791288
   3.26679     -1.926618
   3.32398     -2.022623
   3.38117     -2.089291
   3.43837     -2.126259
   3.49556     -2.136784
   3.55275     -2.196987
   3.60995     -2.335915
   3.66714     -2.456280
   3.72433     -2.557414
   3.78153     -2.640052
   3.83872     -2.696465
   3.89591     -2.713448
   3.89591     -2.713448
   3.92382     -2.704138
   3.95174     -2.682873
   3.97965     -2.649609
   4.00756     -2.604409
   4.03547     -2.547409
   4.06338     -2.478593
   4.09129     -2.398415
   4.11920     -2.308373
   4.14712     -2.210585
   4.17503     -2.119335
   4.20294     -2.114212
   4.23085     -2.102342
   4.25876     -2.082111
   4.28667     -2.054722
   4.31458     -2.023241
   4.34250     -1.992251
   4.37041     -1.966393
   4.39832     -1.949461
   4.42623     -1.943524
   4.42623     -1.943524
   4.47617     -1.939319
   4.52611     -1.926985
   4.57606     -1.907683
   4.62600     -1.882940
   4.67594     -1.854734
   4.72588     -1.824950
   4.77582     -1.795554
   4.82577     -1.767975
   4.87571     -1.743513
   4.92565     -1.723649
   4.97559     -1.708793
   5.02554     -1.664922
   5.07548     -1.422335
   5.12542     -1.172032
   5.17536     -0.939632
   5.22530     -0.852675
   5.27525     -0.860270
   5.32519     -0.871381
   5.37513     -0.875719
 
# Band-Index:   30
   5.37513     -0.259985
   5.32519     -0.317317
   5.27525     -0.462837
   5.22530     -0.654180
   5.17536     -0.783674
   5.12542     -0.786591
   5.07548     -0.778615
   5.02554     -0.773055
   4.97559     -0.799042
   4.92565     -0.901548
   4.87571     -1.000945
   4.82577     -1.094349
   4.77582     -1.179302
   4.72588     -1.253870
   4.67594     -1.316989
   4.62600     -1.367990
   4.57606     -1.407067
   4.52611     -1.434449
   4.47617     -1.450762
   4.42623     -1.456069
   4.42623     -1.456069
   4.39832     -1.467349
   4.37041     -1.500376
   4.34250     -1.553255
   4.31458     -1.622496
   4.28667     -1.705166
   4.25876     -1.798057
   4.23085     -1.898131
   4.20294     -2.002138
   4.17503     -2.106433
   4.14712     -2.116376
   4.11920     -2.110399
   4.09129     -2.101607
   4.06338     -2.091240
   4.03547     -2.080043
   4.00756     -2.068780
   3.97965     -2.057874
   3.95174     -2.047696
   3.92382     -2.038627
   3.89591     -2.031030
   3.89591     -2.031030
   3.83872     -2.021138
   3.78153     -2.020420
   3.72433     -2.029916
   3.66714     -2.048682
   3.60995     -2.072890
   3.55275     -2.089029
   3.49556     -1.988625
   3.43837     -1.795514
   3.38117     -1.587038
   3.32398     -1.376652
   3.26679     -1.172642
   3.20959     -0.983911
   3.15240     -0.834995
   3.09521     -0.790249
   3.03801     -0.792101
   2.98082     -0.753840
   2.92362     -0.524686
   2.86643     -0.336644
   2.80924     -0.259985
   2.80924     -0.259985
   2.75990     -0.317426
   2.71056     -0.464810
   2.66122     -0.663436
   2.61189     -0.804684
   2.56255     -0.809551
   2.51321     -0.813413
   2.46387     -0.823015
   2.41453     -0.837842
   2.36519     -0.910114
   2.31586     -1.012987
   2.26652     -1.110703
   2.21718     -1.200873
   2.16784     -1.281170
   2.11850     -1.350215
   2.06916     -1.406517
   2.01983     -1.450036
   1.97049     -1.480659
   1.92115     -1.498792
   1.87181     -1.504755
   1.87181     -1.504755
   1.84253     -1.515415
   1.81325     -1.546688
   1.78397     -1.595547
   1.75468     -1.658518
   1.72540     -1.730224
   1.69612     -1.802366
   1.66684     -1.864235
   1.63756     -1.907475
   1.60827     -1.934360
   1.57899     -1.951667
   1.54971     -1.964432
   1.52043     -1.974991
   1.49114     -1.984640
   1.46186     -1.993507
   1.43258     -2.002057
   1.40330     -2.010352
   1.37402     -2.018292
   1.34473     -2.025875
   1.31545     -2.033123
   1.31545     -2.033123
   1.25963     -2.045967
   1.20381     -2.056604
   1.14798     -2.062119
   1.09216     -2.056706
   1.03634     -2.030889
   0.98052     -1.965967
   0.92469     -1.840876
   0.86887     -1.671751
   0.81305     -1.483649
   0.75723     -1.291075
   0.70140     -1.103778
   0.64558     -0.945010
   0.58976     -0.954458
   0.53393     -1.028072
   0.47811     -0.937364
   0.42229     -0.685020
   0.36647     -0.467101
   0.31064     -0.315377
   0.25482     -0.260207
   0.25482     -0.260207
   0.24141     -0.260208
   0.22800     -0.260229
   0.21459     -0.260236
   0.20117     -0.260110
   0.18776     -0.259975
   0.17435     -0.259996
   0.16094     -0.260017
   0.14753     -0.260192
   0.13412     -0.260133
   0.12070     -0.260157
   0.10729     -0.260180
   0.09388     -0.260201
   0.08047     -0.260219
   0.06706     -0.260235
   0.05365     -0.260101
   0.04023     -0.260091
   0.02682     -0.260098
   0.01341     -0.259984
   0.00000     -0.259985
 
# Band-Index:   31
   0.00000     -0.259985
   0.01341     -0.259984
   0.02682     -0.260098
   0.04023     -0.260091
   0.05365     -0.260101
   0.06706     -0.260235
   0.08047     -0.260219
   0.09388     -0.260201
   0.10729     -0.260180
   0.12070     -0.260157
   0.13412     -0.260133
   0.14753     -0.260192
   0.16094     -0.260017
   0.17435     -0.259996
   0.18776     -0.259975
   0.20117     -0.260110
   0.21459     -0.260236
   0.22800     -0.260229
   0.24141     -0.260208
   0.25482     -0.260207
   0.25482     -0.260207
   0.31064     -0.274097
   0.36647     -0.316068
   0.42229     -0.385492
   0.47811     -0.481942
   0.53393     -0.602928
   0.58976     -0.743987
   0.64558     -0.857964
   0.70140     -0.834810
   0.75723     -0.807647
   0.81305     -0.792699
   0.86887     -0.790281
   0.92469     -0.798703
   0.98052     -0.815743
   1.03634     -0.837063
   1.09216     -0.858499
   1.14798     -0.875979
   1.20381     -0.886487
   1.25963     -0.888679
   1.31545     -0.883620
   1.31545     -0.883620
   1.34473     -0.878840
   1.37402     -0.873151
   1.40330     -0.867058
   1.43258     -0.860965
   1.46186     -0.855437
   1.49114     -0.850716
   1.52043     -0.846993
   1.54971     -0.844624
   1.57899     -0.843701
   1.60827     -0.844418
   1.63756     -0.846562
   1.66684     -0.850348
   1.69612     -0.855416
   1.72540     -0.861645
   1.75468     -0.868453
   1.78397     -0.875331
   1.81325     -0.881405
   1.84253     -0.885350
   1.87181     -0.886844
   1.87181     -0.886844
   1.92115     -0.889362
   1.97049     -0.896045
   2.01983     -0.904615
   2.06916     -0.912623
   2.11850     -0.916832
   2.16784     -0.915083
   2.21718     -0.906995
   2.26652     -0.893211
   2.31586     -0.875452
   2.36519     -0.856181
   2.41453     -0.804706
   2.46387     -0.700219
   2.51321     -0.599396
   2.56255     -0.505853
   2.61189     -0.423368
   2.66122     -0.354731
   2.71056     -0.303174
   2.75990     -0.270847
   2.80924     -0.259985
   2.80924     -0.259985
   2.86643     -0.274852
   2.92362     -0.319383
   2.98082     -0.392894
   3.03801     -0.493924
   3.09521     -0.616839
   3.15240     -0.722460
   3.20959     -0.750853
   3.26679     -0.761643
   3.32398     -0.772466
   3.38117     -0.784807
   3.43837     -0.797970
   3.49556     -0.810738
   3.55275     -0.822459
   3.60995     -0.833160
   3.66714     -0.842918
   3.72433     -0.852449
   3.78153     -0.862384
   3.83872     -0.872551
   3.89591     -0.882416
   3.89591     -0.882416
   3.92382     -0.886948
   3.95174     -0.891345
   3.97965     -0.895461
   4.00756     -0.899433
   4.03547     -0.903248
   4.06338     -0.907205
   4.09129     -0.911300
   4.11920     -0.915757
   4.14712     -0.920756
   4.17503     -0.926451
   4.20294     -0.932916
   4.23085     -0.940420
   4.25876     -0.948852
   4.28667     -0.958175
   4.31458     -0.967978
   4.34250     -0.977538
   4.37041     -0.986105
   4.39832     -0.992065
   4.42623     -0.994188
   4.42623     -0.994188
   4.47617     -0.986740
   4.52611     -0.966550
   4.57606     -0.936886
   4.62600     -0.902588
   4.67594     -0.868329
   4.72588     -0.837516
   4.77582     -0.812420
   4.82577     -0.793713
   4.87571     -0.780825
   4.92565     -0.773628
   4.97559     -0.771295
   5.02554     -0.696537
   5.07548     -0.597197
   5.12542     -0.504634
   5.17536     -0.422723
   5.22530     -0.354357
   5.27525     -0.303051
   5.32519     -0.270731
   5.37513     -0.259985
 
# Band-Index:   32
   5.37513      0.360897
   5.32519      0.413425
   5.27525      0.544381
   5.22530      0.716521
   5.17536      0.905470
   5.12542      1.093722
   5.07548      1.267478
   5.02554      1.415496
   4.97559      1.529200
   4.92565      1.598935
   4.87571      1.603707
   4.82577      1.526778
   4.77582      1.416868
   4.72588      1.311905
   4.67594      1.222880
   4.62600      1.152488
   4.57606      1.100465
   4.52611      1.065222
   4.47617      1.044936
   4.42623      1.038175
   4.42623      1.038175
   4.39832      1.047633
   4.37041      1.075777
   4.34250      1.120890
   4.31458      1.180759
   4.28667      1.253008
   4.25876      1.334766
   4.23085      1.423111
   4.20294      1.514754
   4.17503      1.607669
   4.14712      1.699620
   4.11920      1.788953
   4.09129      1.874097
   4.06338      1.953406
   4.03547      2.025258
   4.00756      2.086611
   3.97965      2.133435
   3.95174      2.161032
   3.92382      2.168676
   3.89591      2.160433
   3.89591      2.160433
   3.83872      2.117010
   3.78153      2.061488
   3.72433      2.008168
   3.66714      1.964199
   3.60995      1.933410
   3.55275      1.916515
   3.49556      1.912582
   3.43837      1.916230
   3.38117      1.913022
   3.32398      1.875345
   3.26679      1.783154
   3.20959      1.641520
   3.15240      1.461451
   3.09521      1.253539
   3.03801      1.028976
   2.98082      0.801721
   2.92362      0.591792
   2.86643      0.428442
   2.80924      0.360897
   2.80924      0.360897
   2.75990      0.412183
   2.71056      0.541098
   2.66122      0.712527
   2.61189      0.903000
   2.56255      1.095002
   2.51321      1.273638
   2.46387      1.426754
   2.41453      1.542576
   2.36519      1.606370
   2.31586      1.593054
   2.26652      1.501160
   2.21718      1.379731
   2.16784      1.259338
   2.11850      1.150946
   2.06916      1.059361
   2.01983      0.986845
   1.97049      0.934413
   1.92115      0.902933
   1.87181      0.892376
   1.87181      0.892376
   1.84253      0.903374
   1.81325      0.935587
   1.78397      0.987493
   1.75468      1.056220
   1.72540      1.138206
   1.69612      1.229847
   1.66684      1.327343
   1.63756      1.427577
   1.60827      1.527456
   1.57899      1.624881
   1.54971      1.718208
   1.52043      1.805822
   1.49114      1.886797
   1.46186      1.959924
   1.43258      2.024279
   1.40330      2.078064
   1.37402      2.119690
   1.34473      2.148271
   1.31545      2.163739
   1.31545      2.163739
   1.25963      2.163478
   1.20381      2.138263
   1.14798      2.100259
   1.09216      2.054508
   1.03634      2.004817
   0.98052      1.955767
   0.92469      1.911198
   0.86887      1.871229
   0.81305      1.832333
   0.75723      1.786391
   0.70140      1.723991
   0.64558      1.638892
   0.58976      1.530332
   0.53393      1.403307
   0.47811      1.266090
   0.42229      1.130321
   0.36647      1.011620
   0.31064      0.928516
   0.25482      0.898233
   0.25482      0.898233
   0.24141      0.894595
   0.22800      0.883482
   0.21459      0.865990
   0.20117      0.842683
   0.18776      0.813851
   0.17435      0.780552
   0.16094      0.743628
   0.14753      0.703681
   0.13412      0.662191
   0.12070      0.619637
   0.10729      0.576977
   0.09388      0.535167
   0.08047      0.495243
   0.06706      0.458332
   0.05365      0.425686
   0.04023      0.398499
   0.02682      0.377975
   0.01341      0.365232
   0.00000      0.360897
 
# Band-Index:   33
   0.00000      1.852888
   0.01341      1.852039
   0.02682      1.849638
   0.04023      1.845834
   0.05365      1.840467
   0.06706      1.833662
   0.08047      1.825499
   0.09388      1.816010
   0.10729      1.805300
   0.12070      1.793518
   0.13412      1.780862
   0.14753      1.767579
   0.16094      1.753964
   0.17435      1.740505
   0.18776      1.727632
   0.20117      1.715903
   0.21459      1.705872
   0.22800      1.698206
   0.24141      1.693452
   0.25482      1.691801
   0.25482      1.691801
   0.31064      1.726329
   0.36647      1.821318
   0.42229      1.952879
   0.47811      2.087681
   0.53393      2.192999
   0.58976      2.249672
   0.64558      2.262744
   0.70140      2.252036
   0.75723      2.237497
   0.81305      2.228235
   0.86887      2.224779
   0.92469      2.225826
   0.98052      2.231336
   1.03634      2.243397
   1.09216      2.265023
   1.14798      2.297992
   1.20381      2.338672
   1.25963      2.379067
   1.31545      2.408643
   1.31545      2.408643
   1.34473      2.416515
   1.37402      2.417381
   1.40330      2.410097
   1.43258      2.393380
   1.46186      2.365446
   1.49114      2.325776
   1.52043      2.274056
   1.54971      2.210771
   1.57899      2.137457
   1.60827      2.056058
   1.63756      1.969599
   1.66684      1.881138
   1.69612      1.794564
   1.72540      1.713194
   1.75468      1.640653
   1.78397      1.580149
   1.81325      1.534523
   1.84253      1.506449
   1.87181      1.496859
   1.87181      1.496859
   1.92115      1.505948
   1.97049      1.532391
   2.01983      1.573234
   2.06916      1.623997
   2.11850      1.679060
   2.16784      1.732263
   2.21718      1.777678
   2.26652      1.814187
   2.31586      1.860166
   2.36519      1.950854
   2.41453      2.070903
   2.46387      2.178088
   2.51321      2.238253
   2.56255      2.229852
   2.61189      2.158765
   2.66122      2.055100
   2.71056      1.952651
   2.75990      1.879352
   2.80924      1.852888
   2.80924      1.852888
   2.86643      1.888564
   2.92362      1.984980
   2.98082      2.112106
   3.03801      2.229995
   3.09521      2.300633
   3.15240      2.309683
   3.20959      2.273863
   3.26679      2.224405
   3.32398      2.189664
   3.38117      2.186783
   3.43837      2.206521
   3.49556      2.229807
   3.55275      2.251767
   3.60995      2.275141
   3.66714      2.304882
   3.72433      2.342955
   3.78153      2.385052
   3.83872      2.416020
   3.89591      2.411458
   3.89591      2.411458
   3.92382      2.395024
   3.95174      2.375659
   3.97965      2.358588
   4.00756      2.343342
   4.03547      2.325490
   4.06338      2.300337
   4.09129      2.265188
   4.11920      2.218570
   4.14712      2.160529
   4.17503      2.092440
   4.20294      2.016534
   4.23085      1.936189
   4.25876      1.854806
   4.28667      1.776869
   4.31458      1.706467
   4.34250      1.647375
   4.37041      1.602648
   4.39832      1.574531
   4.42623      1.565069
   4.42623      1.565069
   4.47617      1.570765
   4.52611      1.587552
   4.57606      1.613729
   4.62600      1.646767
   4.67594      1.682976
   4.72588      1.718170
   4.77582      1.747788
   4.82577      1.773413
   4.87571      1.820842
   4.92565      1.924765
   4.97559      2.052772
   5.02554      2.164420
   5.07548      2.228393
   5.12542      2.223058
   5.17536      2.154501
   5.22530      2.052721
   5.27525      1.951637
   5.32519      1.879155
   5.37513      1.852888
 
# Band-Index:   34
   5.37513      2.814673
   5.32519      2.852611
   5.27525      2.959748
   5.22530      3.117584
   5.17536      3.292063
   5.12542      3.423825
   5.07548      3.461083
   5.02554      3.433210
   4.97559      3.364412
   4.92565      3.269484
   4.87571      3.166449
   4.82577      3.066709
   4.77582      2.977003
   4.72588      2.899618
   4.67594      2.834913
   4.62600      2.783029
   4.57606      2.743158
   4.52611      2.715102
   4.47617      2.698238
   4.42623      2.692746
   4.42623      2.692746
   4.39832      2.699926
   4.37041      2.721876
   4.34250      2.756781
   4.31458      2.803034
   4.28667      2.858396
   4.25876      2.919388
   4.23085      2.981319
   4.20294      3.038309
   4.17503      3.084230
   4.14712      3.113163
   4.11920      3.122392
   4.09129      3.112404
   4.06338      3.087506
   4.03547      3.052938
   4.00756      3.013807
   3.97965      2.974947
   3.95174      2.940624
   3.92382      2.915229
   3.89591      2.902841
   3.89591      2.902841
   3.83872      2.925791
   3.78153      2.998590
   3.72433      3.089146
   3.66714      3.175728
   3.60995      3.248343
   3.55275      3.305052
   3.49556      3.348712
   3.43837      3.384378
   3.38117      3.416244
   3.32398      3.447496
   3.26679      3.479557
   3.20959      3.511296
   3.15240      3.538094
   3.09521      3.539140
   3.03801      3.420808
   2.98082      3.208212
   2.92362      3.006766
   2.86643      2.865563
   2.80924      2.814673
   2.80924      2.814673
   2.75990      2.852480
   2.71056      2.959051
   2.66122      3.115208
   2.61189      3.285603
   2.56255      3.410600
   2.51321      3.443046
   2.46387      3.409594
   2.41453      3.337924
   2.36519      3.243987
   2.31586      3.143981
   2.26652      3.048106
   2.21718      2.961548
   2.16784      2.886202
   2.11850      2.822221
   2.06916      2.769586
   2.01983      2.728230
   1.97049      2.698307
   1.92115      2.680185
   1.87181      2.674203
   1.87181      2.674203
   1.84253      2.684729
   1.81325      2.715836
   1.78397      2.766149
   1.75468      2.832455
   1.72540      2.910276
   1.69612      2.993489
   1.66684      3.073261
   1.63756      3.139600
   1.60827      3.182285
   1.57899      3.195734
   1.54971      3.181347
   1.52043      3.145740
   1.49114      3.097586
   1.46186      3.045179
   1.43258      2.995058
   1.40330      2.952381
   1.37402      2.921363
   1.34473      2.904717
   1.31545      2.903827
   1.31545      2.903827
   1.25963      2.940915
   1.20381      3.012462
   1.14798      3.098335
   1.09216      3.184239
   1.03634      3.260598
   0.98052      3.320836
   0.92469      3.363347
   0.86887      3.391615
   0.81305      3.413933
   0.75723      3.438467
   0.70140      3.471568
   0.64558      3.514347
   0.58976      3.568386
   0.53393      3.627236
   0.47811      3.493608
   0.42229      3.262716
   0.36647      3.064940
   0.31064      2.931296
   0.25482      2.883432
   0.25482      2.883432
   0.24141      2.882684
   0.22800      2.880160
   0.21459      2.876700
   0.20117      2.872201
   0.18776      2.867037
   0.17435      2.861583
   0.16094      2.855587
   0.14753      2.849656
   0.13412      2.843961
   0.12070      2.838514
   0.10729      2.833525
   0.09388      2.829067
   0.08047      2.825187
   0.06706      2.821907
   0.05365      2.819235
   0.04023      2.817174
   0.02682      2.815706
   0.01341      2.814899
   0.00000      2.814673
 
# Band-Index:   35
   0.00000      3.549953
   0.01341      3.548373
   0.02682      3.544872
   0.04023      3.539162
   0.05365      3.531312
   0.06706      3.521461
   0.08047      3.509825
   0.09388      3.496623
   0.10729      3.482128
   0.12070      3.466660
   0.13412      3.450579
   0.14753      3.434198
   0.16094      3.418271
   0.17435      3.402876
   0.18776      3.388641
   0.20117      3.376092
   0.21459      3.365664
   0.22800      3.357904
   0.24141      3.353434
   0.25482      3.351801
   0.25482      3.351801
   0.31064      3.398403
   0.36647      3.523497
   0.42229      3.677031
   0.47811      3.734980
   0.53393      3.784451
   0.58976      4.019990
   0.64558      4.248303
   0.70140      4.394830
   0.75723      4.480094
   0.81305      4.565496
   0.86887      4.646398
   0.92469      4.693988
   0.98052      4.716521
   1.03634      4.754906
   1.09216      4.813311
   1.14798      4.878357
   1.20381      4.931887
   1.25963      4.960885
   1.31545      4.963477
   1.31545      4.963477
   1.34473      4.956102
   1.37402      4.944028
   1.40330      4.928267
   1.43258      4.909323
   1.46186      4.886352
   1.49114      4.859129
   1.52043      4.826577
   1.54971      4.734940
   1.57899      4.616252
   1.60827      4.521697
   1.63756      4.446670
   1.66684      4.382291
   1.69612      4.323050
   1.72540      4.268056
   1.75468      4.219222
   1.78397      4.178207
   1.81325      4.147414
   1.84253      4.128503
   1.87181      4.121939
   1.87181      4.121939
   1.92115      4.127160
   1.97049      4.142286
   2.01983      4.165732
   2.06916      4.194793
   2.11850      4.226012
   2.16784      4.254304
   2.21718      4.272866
   2.26652      4.272607
   2.31586      4.244756
   2.36519      4.184638
   2.41453      4.098534
   2.46387      4.003265
   2.51321      3.913224
   2.56255      3.848655
   2.61189      3.832282
   2.66122      3.775096
   2.71056      3.667894
   2.75990      3.581748
   2.80924      3.549953
   2.80924      3.549953
   2.86643      3.592612
   2.92362      3.703115
   2.98082      3.808250
   3.03801      3.812242
   3.09521      3.874432
   3.15240      4.063922
   3.20959      4.252205
   3.26679      4.377278
   3.32398      4.447475
   3.38117      4.510622
   3.43837      4.587143
   3.49556      4.668124
   3.55275      4.726454
   3.60995      4.754837
   3.66714      4.778691
   3.72433      4.816639
   3.78153      4.870044
   3.83872      4.926357
   3.89591      4.963013
   3.89591      4.963013
   3.92382      4.963918
   3.95174      4.947626
   3.97965      4.910839
   4.00756      4.852135
   4.03547      4.775237
   4.06338      4.687521
   4.09129      4.599895
   4.11920      4.520914
   4.14712      4.454837
   4.17503      4.397428
   4.20294      4.335825
   4.23085      4.260178
   4.25876      4.173945
   4.28667      4.086360
   4.31458      4.005289
   4.34250      3.936601
   4.37041      3.884550
   4.39832      3.851799
   4.42623      3.840725
   4.42623      3.840725
   4.47617      3.846125
   4.52611      3.862498
   4.57606      3.889230
   4.62600      3.925199
   4.67594      3.967953
   4.72588      4.014342
   4.77582      4.057760
   4.82577      4.089507
   4.87571      4.098350
   4.92565      4.074709
   4.97559      4.020261
   5.02554      3.948742
   5.07548      3.870774
   5.12542      3.808029
   5.17536      3.799316
   5.22530      3.761446
   5.27525      3.664727
   5.32519      3.581222
   5.37513      3.549953
 
# Band-Index:   36
   5.37513      4.493354
   5.32519      4.422415
   5.27525      4.291997
   5.22530      4.183936
   5.17536      4.177449
   5.12542      4.260653
   5.07548      4.369334
   5.02554      4.505356
   4.97559      4.643077
   4.92565      4.744116
   4.87571      4.793006
   4.82577      4.789178
   4.77582      4.749214
   4.72588      4.691858
   4.67594      4.630906
   4.62600      4.575868
   4.57606      4.530803
   4.52611      4.497628
   4.47617      4.477596
   4.42623      4.470972
   4.42623      4.470972
   4.39832      4.480883
   4.37041      4.510322
   4.34250      4.555512
   4.31458      4.610567
   4.28667      4.661597
   4.25876      4.689661
   4.23085      4.698216
   4.20294      4.716861
   4.17503      4.766304
   4.14712      4.845565
   4.11920      4.942088
   4.09129      5.044407
   4.06338      5.143921
   4.03547      5.233462
   4.00756      5.307904
   3.97965      5.367071
   3.95174      5.412736
   3.92382      5.447032
   3.89591      5.469069
   3.89591      5.469069
   3.83872      5.468005
   3.78153      5.407775
   3.72433      5.345461
   3.66714      5.274671
   3.60995      5.186203
   3.55275      5.109024
   3.49556      5.059447
   3.43837      4.999778
   3.38117      4.901965
   3.32398      4.781846
   3.26679      4.669335
   3.20959      4.555430
   3.15240      4.426940
   3.09521      4.321032
   3.03801      4.208209
   2.98082      4.148954
   2.92362      4.247570
   2.86643      4.402171
   2.80924      4.493354
   2.80924      4.493354
   2.75990      4.422147
   2.71056      4.288902
   2.66122      4.170172
   2.61189      4.146345
   2.56255      4.232749
   2.51321      4.359818
   2.46387      4.508271
   2.41453      4.638157
   2.36519      4.708287
   2.31586      4.711661
   2.26652      4.664695
   2.21718      4.590042
   2.16784      4.506627
   2.11850      4.426682
   2.06916      4.357420
   2.01983      4.301882
   1.97049      4.261875
   1.92115      4.238050
   1.87181      4.230324
   1.87181      4.230324
   1.84253      4.245965
   1.81325      4.292792
   1.78397      4.369734
   1.75468      4.473450
   1.72540      4.597443
   1.69612      4.719793
   1.66684      4.745992
   1.63756      4.729957
   1.60827      4.733831
   1.57899      4.758120
   1.54971      4.793051
   1.52043      4.877310
   1.49114      5.028265
   1.46186      5.178744
   1.43258      5.314429
   1.40330      5.415337
   1.37402      5.446988
   1.34473      5.470253
   1.31545      5.479751
   1.31545      5.479751
   1.25963      5.440332
   1.20381      5.346969
   1.14798      5.233274
   1.09216      5.116184
   1.03634      5.004187
   0.98052      4.901141
   0.92469      4.816305
   0.86887      4.779698
   0.81305      4.776396
   0.75723      4.718206
   0.70140      4.551536
   0.64558      4.425648
   0.58976      4.381152
   0.53393      4.270627
   0.47811      4.120753
   0.42229      4.116343
   0.36647      4.257364
   0.31064      4.420745
   0.25482      4.509031
   0.25482      4.509031
   0.24141      4.508919
   0.22800      4.508517
   0.21459      4.507966
   0.20117      4.507382
   0.18776      4.506783
   0.17435      4.505670
   0.16094      4.504456
   0.14753      4.502656
   0.13412      4.501422
   0.12070      4.500087
   0.10729      4.498781
   0.09388      4.497537
   0.08047      4.496389
   0.06706      4.495365
   0.05365      4.494669
   0.04023      4.494235
   0.02682      4.493717
   0.01341      4.493459
   0.00000      4.493354
 
# Band-Index:   37
   0.00000      4.493354
   0.01341      4.493459
   0.02682      4.493717
   0.04023      4.494235
   0.05365      4.494669
   0.06706      4.495365
   0.08047      4.496389
   0.09388      4.497537
   0.10729      4.498781
   0.12070      4.500087
   0.13412      4.501422
   0.14753      4.502656
   0.16094      4.504456
   0.17435      4.505670
   0.18776      4.506783
   0.20117      4.507382
   0.21459      4.507966
   0.22800      4.508517
   0.24141      4.508919
   0.25482      4.509031
   0.25482      4.509031
   0.31064      4.527246
   0.36647      4.578651
   0.42229      4.655881
   0.47811      4.617088
   0.53393      4.539202
   0.58976      4.558680
   0.64558      4.678566
   0.70140      4.786234
   0.75723      4.882086
   0.81305      5.047890
   0.86887      5.244630
   0.92469      5.418635
   0.98052      5.537123
   1.03634      5.605955
   1.09216      5.633124
   1.14798      5.633429
   1.20381      5.622507
   1.25963      5.601907
   1.31545      5.571058
   1.31545      5.571058
   1.34473      5.546091
   1.37402      5.500673
   1.40330      5.425652
   1.43258      5.385204
   1.46186      5.353591
   1.49114      5.327300
   1.52043      5.309498
   1.54971      5.301244
   1.57899      5.298089
   1.60827      5.261710
   1.63756      5.121359
   1.66684      4.961481
   1.69612      4.880691
   1.72540      4.934252
   1.75468      5.024187
   1.78397      5.122582
   1.81325      5.216231
   1.84253      5.287132
   1.87181      5.308441
   1.87181      5.308441
   1.92115      5.309424
   1.97049      5.314886
   2.01983      5.328860
   2.06916      5.351660
   2.11850      5.382789
   2.16784      5.387008
   2.21718      5.364488
   2.26652      5.327637
   2.31586      5.273852
   2.36519      5.201592
   2.41453      5.112808
   2.46387      5.011034
   2.51321      4.903157
   2.56255      4.795898
   2.61189      4.696113
   2.66122      4.611543
   2.71056      4.547018
   2.75990      4.506923
   2.80924      4.493354
   2.80924      4.493354
   2.86643      4.511561
   2.92362      4.561641
   2.98082      4.624366
   3.03801      4.652656
   3.09521      4.635609
   3.15240      4.621529
   3.20959      4.637919
   3.26679      4.766729
   3.32398      4.975854
   3.38117      5.180602
   3.43837      5.264065
   3.49556      5.255240
   3.55275      5.271278
   3.60995      5.298617
   3.66714      5.336703
   3.72433      5.397376
   3.78153      5.459699
   3.83872      5.505310
   3.89591      5.574237
   3.89591      5.574237
   3.92382      5.608686
   3.95174      5.631575
   3.97965      5.633486
   4.00756      5.613314
   4.03547      5.584253
   4.06338      5.557980
   4.09129      5.538969
   4.11920      5.524946
   4.14712      5.511125
   4.17503      5.440368
   4.20294      5.295377
   4.23085      5.169112
   4.25876      5.084043
   4.28667      5.059815
   4.31458      5.092282
   4.34250      5.155733
   4.37041      5.228132
   4.39832      5.291696
   4.42623      5.321074
   4.42623      5.321074
   4.47617      5.323112
   4.52611      5.329085
   4.57606      5.337133
   4.62600      5.345575
   4.67594      5.351227
   4.72588      5.350692
   4.77582      5.339567
   4.82577      5.313380
   4.87571      5.268459
   4.92565      5.202367
   4.97559      5.116866
   5.02554      5.016766
   5.07548      4.908598
   5.12542      4.799958
   5.17536      4.698695
   5.22530      4.613134
   5.27525      4.547672
   5.32519      4.507227
   5.37513      4.493354
 
# Band-Index:   38
   5.37513      4.716910
   5.32519      4.760520
   5.27525      4.814501
   5.22530      4.828943
   5.17536      4.818899
   5.12542      4.842201
   5.07548      4.936019
   5.02554      5.083700
   4.97559      5.258728
   4.92565      5.428759
   4.87571      5.538996
   4.82577      5.567400
   4.77582      5.541361
   4.72588      5.491184
   4.67594      5.438962
   4.62600      5.399135
   4.57606      5.378363
   4.52611      5.379473
   4.47617      5.398019
   4.42623      5.413010
   4.42623      5.413010
   4.39832      5.418966
   4.37041      5.429626
   4.34250      5.440619
   4.31458      5.452917
   4.28667      5.466257
   4.25876      5.479480
   4.23085      5.491855
   4.20294      5.503256
   4.17503      5.519152
   4.14712      5.622123
   4.11920      5.790895
   4.09129      5.963009
   4.06338      6.116947
   4.03547      6.136298
   4.00756      6.118001
   3.97965      6.117777
   3.95174      6.145364
   3.92382      6.191819
   3.89591      6.239086
   3.89591      6.239086
   3.83872      6.297833
   3.78153      6.296164
   3.72433      6.250351
   3.66714      6.160996
   3.60995      6.012805
   3.55275      5.840220
   3.49556      5.660119
   3.43837      5.479997
   3.38117      5.422185
   3.32398      5.488328
   3.26679      5.508945
   3.20959      5.394883
   3.15240      5.201749
   3.09521      5.012623
   3.03801      4.883610
   2.98082      4.844251
   2.92362      4.829054
   2.86643      4.771132
   2.80924      4.716910
   2.80924      4.716910
   2.75990      4.760739
   2.71056      4.816822
   2.66122      4.836610
   2.61189      4.831170
   2.56255      4.848706
   2.51321      4.919251
   2.46387      5.031699
   2.41453      5.163989
   2.36519      5.290920
   2.31586      5.386019
   2.26652      5.435210
   2.21718      5.440357
   2.16784      5.416217
   2.11850      5.398523
   2.06916      5.402877
   2.01983      5.403272
   1.97049      5.402087
   1.92115      5.400902
   1.87181      5.400278
   1.87181      5.400278
   1.84253      5.381524
   1.81325      5.380082
   1.78397      5.398179
   1.75468      5.417583
   1.72540      5.426564
   1.69612      5.420281
   1.66684      5.403236
   1.63756      5.387788
   1.60827      5.410903
   1.57899      5.549918
   1.54971      5.729751
   1.52043      5.905968
   1.49114      6.063188
   1.46186      6.188538
   1.43258      6.271937
   1.40330      6.307978
   1.37402      6.303862
   1.34473      6.273383
   1.31545      6.230948
   1.31545      6.230948
   1.25963      6.153306
   1.20381      6.105203
   1.14798      6.068447
   1.09216      5.997896
   1.03634      5.870825
   0.98052      5.708404
   0.92469      5.554339
   0.86887      5.443628
   0.81305      5.363318
   0.75723      5.295479
   0.70140      5.225637
   0.64558      5.136649
   0.58976      5.022498
   0.53393      4.895909
   0.47811      4.774530
   0.42229      4.731693
   0.36647      4.798571
   0.31064      4.795234
   0.25482      4.759327
   0.25482      4.759327
   0.24141      4.759007
   0.22800      4.757635
   0.21459      4.756063
   0.20117      4.754062
   0.18776      4.751531
   0.17435      4.748656
   0.16094      4.745401
   0.14753      4.741545
   0.13412      4.738067
   0.12070      4.734568
   0.10729      4.731192
   0.09388      4.728028
   0.08047      4.725151
   0.06706      4.722624
   0.05365      4.720548
   0.04023      4.718895
   0.02682      4.717678
   0.01341      4.716991
   0.00000      4.716910
 
# Band-Index:   39
   0.00000      5.318188
   0.01341      5.317914
   0.02682      5.317017
   0.04023      5.315696
   0.05365      5.313773
   0.06706      5.311177
   0.08047      5.308581
   0.09388      5.305691
   0.10729      5.302585
   0.12070      5.299348
   0.13412      5.296067
   0.14753      5.292789
   0.16094      5.290113
   0.17435      5.287203
   0.18776      5.284594
   0.20117      5.282023
   0.21459      5.279938
   0.22800      5.278616
   0.24141      5.277849
   0.25482      5.277577
   0.25482      5.277577
   0.31064      5.285376
   0.36647      5.332446
   0.42229      5.437487
   0.47811      5.587470
   0.53393      5.767765
   0.58976      5.935372
   0.64558      6.034383
   0.70140      6.079998
   0.75723      6.107148
   0.81305      6.125580
   0.86887      6.134280
   0.92469      6.135410
   0.98052      6.138529
   1.03634      6.168035
   1.09216      6.251525
   1.14798      6.390272
   1.20381      6.556488
   1.25963      6.728997
   1.31545      6.873119
   1.31545      6.873118
   1.34473      6.906260
   1.37402      6.890335
   1.40330      6.839244
   1.43258      6.772492
   1.46186      6.688275
   1.49114      6.582867
   1.52043      6.461993
   1.54971      6.331019
   1.57899      6.197434
   1.60827      6.066860
   1.63756      5.944742
   1.66684      5.834731
   1.69612      5.744079
   1.72540      5.675202
   1.75468      5.628233
   1.78397      5.593634
   1.81325      5.557801
   1.84253      5.515529
   1.87181      5.485737
   1.87181      5.485737
   1.92115      5.503001
   1.97049      5.551756
   2.01983      5.624801
   2.06916      5.713790
   2.11850      5.810888
   2.16784      5.905136
   2.21718      5.983902
   2.26652      6.035294
   2.31586      6.031991
   2.36519      5.939442
   2.41453      5.809657
   2.46387      5.672878
   2.51321      5.536616
   2.56255      5.418711
   2.61189      5.332079
   2.66122      5.286979
   2.71056      5.285045
   2.75990      5.306647
   2.80924      5.318188
   2.80924      5.318188
   2.86643      5.302975
   2.92362      5.281809
   2.98082      5.309736
   3.03801      5.413918
   3.09521      5.576764
   3.15240      5.743480
   3.20959      5.834785
   3.26679      5.880779
   3.32398      5.964096
   3.38117      6.029197
   3.43837      6.070247
   3.49556      6.119169
   3.55275      6.168883
   3.60995      6.222097
   3.66714      6.322686
   3.72433      6.497665
   3.78153      6.701066
   3.83872      6.879125
   3.89591      6.887358
   3.89591      6.887357
   3.92382      6.828246
   3.95174      6.740003
   3.97965      6.621158
   4.00756      6.477263
   4.03547      6.320754
   4.06338      6.194097
   4.09129      6.178993
   4.11920      6.145299
   4.14712      6.080421
   4.17503      6.000739
   4.20294      5.920308
   4.23085      5.846869
   4.25876      5.782447
   4.28667      5.726720
   4.31458      5.678291
   4.34250      5.633775
   4.37041      5.591527
   4.39832      5.554491
   4.42623      5.537809
   4.42623      5.537809
   4.47617      5.569394
   4.52611      5.634931
   4.57606      5.708894
   4.62600      5.780120
   4.67594      5.840893
   4.72588      5.884735
   4.77582      5.902961
   4.82577      5.885406
   4.87571      5.831062
   4.92565      5.772383
   4.97559      5.718145
   5.02554      5.635633
   5.07548      5.526965
   5.12542      5.420388
   5.17536      5.336979
   5.22530      5.290508
   5.27525      5.286247
   5.32519      5.306901
   5.37513      5.318188
 
# Band-Index:   40
   5.37513      5.318188
   5.32519      5.336320
   5.27525      5.388969
   5.22530      5.476130
   5.17536      5.593290
   5.12542      5.735870
   5.07548      5.896689
   5.02554      6.070429
   4.97559      6.249858
   4.92565      6.413251
   4.87571      6.371464
   4.82577      6.370065
   4.77582      6.392997
   4.72588      6.406237
   4.67594      6.394707
   4.62600      6.363139
   4.57606      6.323072
   4.52611      6.286660
   4.47617      6.261453
   4.42623      6.252718
   4.42623      6.252718
   4.39832      6.264102
   4.37041      6.295964
   4.34250      6.342628
   4.31458      6.398252
   4.28667      6.456140
   4.25876      6.511197
   4.23085      6.557838
   4.20294      6.592200
   4.17503      6.614089
   4.14712      6.631038
   4.11920      6.659248
   4.09129      6.718422
   4.06338      6.808483
   4.03547      6.897477
   4.00756      6.954608
   3.97965      6.997576
   3.95174      7.044193
   3.92382      7.086767
   3.89591      7.091305
   3.89591      7.091303
   3.83872      7.041992
   3.78153      7.004905
   3.72433      6.879618
   3.66714      6.712476
   3.60995      6.545020
   3.55275      6.411638
   3.49556      6.362572
   3.43837      6.394671
   3.38117      6.398288
   3.32398      6.340920
   3.26679      6.304033
   3.20959      6.211719
   3.15240      6.037256
   3.09521      5.858182
   3.03801      5.685579
   2.98082      5.532887
   2.92362      5.415685
   2.86643      5.342752
   2.80924      5.318188
   2.80924      5.318188
   2.75990      5.336439
   2.71056      5.389683
   2.66122      5.478045
   2.61189      5.596930
   2.56255      5.741959
   2.51321      5.905701
   2.46387      6.082444
   2.41453      6.265051
   2.36519      6.398177
   2.31586      6.386286
   2.26652      6.462821
   2.21718      6.547430
   2.16784      6.598477
   2.11850      6.617964
   2.06916      6.614313
   2.01983      6.597303
   1.97049      6.576892
   1.92115      6.561301
   1.87181      6.555626
   1.87181      6.555626
   1.84253      6.561429
   1.81325      6.577424
   1.78397      6.602305
   1.75468      6.632544
   1.72540      6.664730
   1.69612      6.697721
   1.66684      6.730085
   1.63756      6.762141
   1.60827      6.793141
   1.57899      6.822528
   1.54971      6.849258
   1.52043      6.873138
   1.49114      6.896002
   1.46186      6.924013
   1.43258      6.964973
   1.40330      7.016995
   1.37402      7.064981
   1.34473      7.087834
   1.31545      7.062133
   1.31545      7.062202
   1.25963      6.938126
   1.20381      6.800954
   1.14798      6.692980
   1.09216      6.630507
   1.03634      6.606531
   0.98052      6.605779
   0.92469      6.608271
   0.86887      6.562468
   0.81305      6.477193
   0.75723      6.405444
   0.70140      6.341163
   0.64558      6.216490
   0.58976      6.029507
   0.53393      5.838662
   0.47811      5.657403
   0.42229      5.496277
   0.36647      5.373791
   0.31064      5.301398
   0.25482      5.277577
   0.25482      5.277577
   0.24141      5.277849
   0.22800      5.278616
   0.21459      5.279938
   0.20117      5.282023
   0.18776      5.284594
   0.17435      5.287203
   0.16094      5.290113
   0.14753      5.292789
   0.13412      5.296067
   0.12070      5.299348
   0.10729      5.302585
   0.09388      5.305691
   0.08047      5.308581
   0.06706      5.311177
   0.05365      5.313773
   0.04023      5.315696
   0.02682      5.317017
   0.01341      5.317914
   0.00000      5.318188
